File: OriginPro/EIS/C0_MS_pH7_03.DTA
EXPLAIN
TAG	MOTTSCHOTTKY
TITLE	LABEL	Mott-Schottky	Test &Identifier
DATE	LABEL	29-10-2009	Date
TIME	LABEL	20:44:13	Time
NOTES	NOTES	2	&Notes...
	Si/SiO2
	T=25.3oC
PSTAT	PSTAT	REF600-07089	Potentiostat
VINIT	POTEN	3.00000E+000	F	Initial &Voltage (V)
VFINAL	POTEN	-3.00000E+000	F	Final &Voltage (V)
VSTEP	QUANT	1.00000E-001	&Voltage Step (V)
FREQINIT	QUANT	1.00000E+003	Fre&quency (Hz)
VAC	QUANT	1.00000E+001	AC &Voltage (mV rms)
AREA	QUANT	1.00000E-002	&Area (cm^2)
CONDIT	TWOPARAM	T	2.00000E+001	3.00000E+000	Conditionin&g	Time(s)	E(V)
DELAY	TWOPARAM	T	2.50000E-001	0.00000E+000	Init. De&lay	Time(s)	Stab.(mV/s)
SPEED	SELECTOR	1	&Optimize for:
ZGUESS	QUANT	1.00000E+002	E&stimated Z (ohms)
OCVCURVE	TABLE	1
	Pt	T	Vf	Vm	Ach	Over
	#	s	V vs. Ref.	V	V	bits
	0	0.258333	3.66749E+000	0.00000E+000	-2.40936E-004	.............
EOC	QUANT	3.66749	Open Circuit (V)
PSTATMODEL	IQUANT	4	Pstat Model
PSTATSECTION	LABEL	REF600-07089	Pstat Section
PSTATSERIALNO	LABEL	07089	Pstat Serial Number
CTRLMODE	IQUANT	1	Control Mode
IESTAB	IQUANT	0	I/E Stability
CASPEED	IQUANT	2	Control Amp Speed
CONVENTION	IQUANT	1	Current Convention
ICHRANGE	IQUANT	2	Ich Range
ICHRANGEMODE	TOGGLE	F	Ich Auto Range
ICHOFFSETENABLE	TOGGLE	T	Ich Offset Enable
ICHOFFSET	QUANT	0	Ich Offset (V)
ICHFILTER	IQUANT	3	Ich Filter
VCHRANGE	IQUANT	2	Vch Range
VCHRANGEMODE	TOGGLE	F	Vch Auto Range
VCHOFFSETENABLE	TOGGLE	T	Vch Offset Enable
VCHOFFSET	QUANT	0	Vch Offset (V)
VCHFILTER	IQUANT	3	Vch Filter
ACHRANGE	IQUANT	2	Ach Range
ACHOFFSETENABLE	TOGGLE	F	Ach Offset Enable
ACHOFFSET	QUANT	0	Ach Offset (V)
ACHFILTER	IQUANT	1	Ach Filter
IERANGELOWERLIMIT	IQUANT	1	I/E Range Lower Limit
IERANGEMODE	TOGGLE	F	I/E AutoRange
IERANGE	IQUANT	10	I/E Range
POSFEEDENABLE	TOGGLE	F	Positive Feedback IR Comp
POSFEEDRESISTANCE	QUANT	0	Positive Feedback Resistance (ohm)
ACHSELECT	IQUANT	0	Ach Select
CABLEID	IQUANT	14	Cable ID
DCCALDATE	LABEL	14-4-2009	DC Calibration Date
ACCALDATE	LABEL	14-4-2009	AC Calibration Date
THERMOSELECT	IQUANT	0	Thermo Select
FRAMEWORKVERSION	QUANT	5.5	Framework Version
INSTRUMENTVERSION	LABEL	2.00	Instrument Version
ZCURVE	TABLE
	Pt	Time	Freq	Zreal	Zimag	Zsig	Zmod	Zphz	Idc	Vdc	IERange
	#	s	Hz	ohm	ohm	V	ohm	°	A	V	#
	0	11	998.26	1427.82	-18775.5	1	18829.7	-85.6512	1.28448E-008	2.99892	7
	1	15	998.26	1416.38	-18747.8	1	18801.2	-85.6796	1.13275E-008	2.89898	7
	2	21	998.26	1488.16	-18739.1	1	18798.1	-85.4594	6.56634E-009	2.79902	7
	3	26	998.26	1447.88	-18768.8	1	18824.5	-85.5888	1.60958E-008	2.69909	7
	4	33	998.26	1413.9	-18798.7	1	18851.8	-85.6987	1.06805E-008	2.5991	7
	5	39	998.26	1424.05	-18859.7	1	18913.4	-85.6819	1.56295E-008	2.49918	7
	6	45	998.26	1442.85	-18898.5	1	18953.5	-85.6341	1.48232E-008	2.39922	7
	7	50	998.26	1456.21	-18937	1	18992.9	-85.6027	7.91757E-011	2.29922	7
	8	56	998.26	1446	-18983.3	1	19038.3	-85.6441	3.14513E-009	2.19925	7
	9	61	998.26	1389.96	-19048.5	1	19099.1	-85.8266	3.50296E-010	2.09929	7
	10	67	998.26	1469.24	-19057.6	1	19114.1	-85.5915	3.89176E-009	1.99931	7
	11	73	998.26	1374.01	-19137.6	1	19186.9	-85.8934	1.13002E-008	1.89939	7
	12	78	998.26	1513.76	-19196.4	1	19256	-85.4912	6.55031E-010	1.79936	7
	13	84	998.26	1444.5	-19314.6	1	19368.5	-85.7229	4.51294E-009	1.69946	7
	14	90	998.26	1457.03	-19383.6	1	19438.3	-85.7013	7.17632E-009	1.5996	7
	15	95	998.26	1468.76	-19463.9	1	19519.3	-85.6846	3.56489E-009	1.49963	7
	16	101	998.26	1471.82	-19541.3	1	19596.6	-85.6927	1.60655E-009	1.39964	7
	17	106	998.26	1455.42	-19731.3	1	19784.9	-85.7814	1.06552E-008	1.29972	7
	18	112	998.26	1494.98	-19860.3	1	19916.5	-85.6952	8.64483E-009	1.19977	7
	19	118	998.26	1445.54	-20015.3	1	20067.4	-85.8692	9.62891E-009	1.09973	7
	20	126	998.26	1514.45	-20263.4	1	20319.9	-85.7258	2.69836E-009	0.99974	7
	21	132	998.26	1477.58	-20406.8	1	20460.2	-85.8587	1.58519E-009	0.899774	7
	22	140	998.26	1458.72	-20777.9	1	20829.1	-85.9841	1.15971E-008	0.799853	7
	23	148	998.26	1510.01	-21069.9	1	21123.9	-85.9008	1.50995E-008	0.699901	7
	24	156	998.26	1500.14	-21277.9	1	21330.7	-85.9672	1.37233E-008	0.599921	7
	25	165	998.26	1484.53	-21552.2	1	21603.3	-86.0596	1.34138E-008	0.499979	7
	26	173	998.26	1548.09	-21971.6	1	22026.1	-85.9697	1.1738E-008	0.400024	7
	27	181	998.26	1567.98	-22234.7	1	22289.9	-85.9662	3.62297E-009	0.300064	7
	28	192	998.26	1528.87	-22571.5	1	22623.2	-86.125	4.87939E-009	0.200092	7
	29	203	998.26	1501.08	-22786	1	22835.4	-86.231	4.29398E-009	0.100165	7
	30	217	998.26	1523.41	-23228.7	1	23278.6	-86.2477	1.30703E-008	0.000213	7
	31	223	998.26	1653.54	-23548.7	1	23606.7	-85.9834	1.31452E-008	-0.10001	7
	32	229	998.26	1673.99	-23961.7	1	24020.1	-86.0037	7.66041E-009	-0.199967	7
	33	235	998.26	1772.45	-24509.9	1	24573.9	-85.8638	2.94214E-009	-0.299951	7
	34	240	998.26	1708.49	-24986	1	25044.3	-86.0883	5.73478E-009	-0.399874	7
	35	246	998.26	1818.65	-25420.7	1	25485.6	-85.9079	9.11299E-009	-0.49984	7
	36	252	998.26	1646.78	-25835.2	1	25887.6	-86.3528	7.76284E-009	-0.599787	7
	37	258	998.26	1717.84	-26208.3	1	26264.5	-86.2499	8.14823E-009	-0.699769	7
	38	264	998.26	1618.06	-26642.5	1	26691.6	-86.5246	1.21841E-008	-0.799685	7
	39	270	998.26	1702.99	-26926	1	26979.8	-86.381	2.47205E-010	-0.899689	7
	40	275	998.26	1634.07	-27196.8	1	27245.8	-86.5616	7.22016E-009	-0.99963	7
	41	281	998.26	1590.85	-27385.9	1	27432.1	-86.6754	-5.19328E-011	-1.09971	7
	42	287	998.26	1564.38	-27763.2	1	27807.2	-86.7749	8.15261E-009	-1.19965	7
	43	293	998.26	1587.24	-28101.6	1	28146.4	-86.7672	9.74839E-009	-1.29958	7
	44	299	998.26	1733.21	-28351.3	1	28404.3	-86.5017	4.12584E-009	-1.39957	7
	45	305	998.26	1639.27	-28338.2	1	28385.5	-86.6893	1.07175E-008	-1.49951	7
	46	310	998.26	1697.94	-28608.4	1	28658.8	-86.6034	1.27226E-008	-1.59942	7
	47	315	998.26	1733.79	-28643.1	1	28695.6	-86.5361	7.95927E-009	-1.69938	7
	48	321	998.26	1787.63	-28705.4	1	28761	-86.4365	5.70663E-009	-1.79933	7
	49	326	998.26	1643.26	-28838.4	1	28885.2	-86.7387	2.95312E-009	-1.89931	7
	50	331	998.26	1682.64	-28752.1	1	28801.3	-86.6507	4.26961E-009	-1.99926	7
	51	337	998.26	1574.46	-28911.2	1	28954.1	-86.8828	2.49823E-009	-2.09925	7
	52	342	998.26	1559.22	-28793.1	1	28835.3	-86.9003	9.54245E-009	-2.19918	7
	53	348	998.26	1538.95	-28808.6	1	28849.7	-86.9422	1.02799E-008	-2.29918	7
	54	354	998.26	1574.83	-28623.8	1	28667.1	-86.8509	8.05923E-009	-2.39912	7
	55	360	998.26	1634.47	-28806.3	1	28852.6	-86.7525	3.74713E-009	-2.49909	7
	56	366	998.26	1547.55	-28656	1	28697.7	-86.9088	1.12388E-008	-2.59903	7
	57	371	998.26	1540.74	-28610.4	1	28651.8	-86.9174	9.88806E-009	-2.699	7
	58	377	998.26	1663.94	-28632.9	1	28681.2	-86.6741	2.93816E-009	-2.799	7
	59	383	998.26	1526.94	-28559.8	1	28600.5	-86.9396	8.23147E-009	-2.89891	7
	60	388	998.26	1519.86	-28568.8	1	28609.2	-86.9547	7.28305E-009	-2.99888	7