File: OriginPro/EIS/C0_MS_pH4_05.DTA
EXPLAIN
TAG	MOTTSCHOTTKY
TITLE	LABEL	Mott-Schottky	Test &Identifier
DATE	LABEL	29-10-2009	Date
TIME	LABEL	22:38:34	Time
NOTES	NOTES	2	&Notes...
	Si/SiO2
	T=25.3oC
PSTAT	PSTAT	REF600-07089	Potentiostat
VINIT	POTEN	3.00000E+000	F	Initial &Voltage (V)
VFINAL	POTEN	-3.00000E+000	F	Final &Voltage (V)
VSTEP	QUANT	1.00000E-001	&Voltage Step (V)
FREQINIT	QUANT	5.00000E+003	Fre&quency (Hz)
VAC	QUANT	1.00000E+001	AC &Voltage (mV rms)
AREA	QUANT	1.00000E-002	&Area (cm^2)
CONDIT	TWOPARAM	T	2.00000E+001	3.00000E+000	Conditionin&g	Time(s)	E(V)
DELAY	TWOPARAM	T	2.50000E-001	0.00000E+000	Init. De&lay	Time(s)	Stab.(mV/s)
SPEED	SELECTOR	1	&Optimize for:
ZGUESS	QUANT	1.00000E+002	E&stimated Z (ohms)
OCVCURVE	TABLE	1
	Pt	T	Vf	Vm	Ach	Over
	#	s	V vs. Ref.	V	V	bits
	0	0.258333	3.67167E+000	0.00000E+000	1.32197E-004	.............
EOC	QUANT	3.67167	Open Circuit (V)
PSTATMODEL	IQUANT	4	Pstat Model
PSTATSECTION	LABEL	REF600-07089	Pstat Section
PSTATSERIALNO	LABEL	07089	Pstat Serial Number
CTRLMODE	IQUANT	1	Control Mode
IESTAB	IQUANT	0	I/E Stability
CASPEED	IQUANT	2	Control Amp Speed
CONVENTION	IQUANT	1	Current Convention
ICHRANGE	IQUANT	2	Ich Range
ICHRANGEMODE	TOGGLE	F	Ich Auto Range
ICHOFFSETENABLE	TOGGLE	T	Ich Offset Enable
ICHOFFSET	QUANT	0	Ich Offset (V)
ICHFILTER	IQUANT	3	Ich Filter
VCHRANGE	IQUANT	2	Vch Range
VCHRANGEMODE	TOGGLE	F	Vch Auto Range
VCHOFFSETENABLE	TOGGLE	T	Vch Offset Enable
VCHOFFSET	QUANT	0	Vch Offset (V)
VCHFILTER	IQUANT	3	Vch Filter
ACHRANGE	IQUANT	2	Ach Range
ACHOFFSETENABLE	TOGGLE	F	Ach Offset Enable
ACHOFFSET	QUANT	0	Ach Offset (V)
ACHFILTER	IQUANT	2	Ach Filter
IERANGELOWERLIMIT	IQUANT	1	I/E Range Lower Limit
IERANGEMODE	TOGGLE	F	I/E AutoRange
IERANGE	IQUANT	10	I/E Range
POSFEEDENABLE	TOGGLE	F	Positive Feedback IR Comp
POSFEEDRESISTANCE	QUANT	0	Positive Feedback Resistance (ohm)
ACHSELECT	IQUANT	0	Ach Select
CABLEID	IQUANT	14	Cable ID
DCCALDATE	LABEL	14-4-2009	DC Calibration Date
ACCALDATE	LABEL	14-4-2009	AC Calibration Date
THERMOSELECT	IQUANT	0	Thermo Select
FRAMEWORKVERSION	QUANT	5.5	Framework Version
INSTRUMENTVERSION	LABEL	2.00	Instrument Version
ZCURVE	TABLE
	Pt	Time	Freq	Zreal	Zimag	Zsig	Zmod	Zphz	Idc	Vdc	IERange
	#	s	Hz	ohm	ohm	V	ohm	°	A	V	#
	0	13	5015.63	840.138	-4077.47	1	4163.13	-78.3575	1.07968E-007	2.99892	8
	1	19	5015.63	833.437	-4082.99	1	4167.18	-78.463	7.22962E-008	2.89894	8
	2	25	5015.63	838.375	-4081.34	1	4166.56	-78.392	7.58761E-008	2.79901	8
	3	31	5015.63	838.995	-4094.13	1	4179.21	-78.4189	7.28703E-008	2.69906	8
	4	37	5015.63	835.295	-4095.59	1	4179.91	-78.4726	5.85946E-008	2.59908	8
	5	43	5015.63	834.029	-4102.91	1	4186.82	-78.5096	5.42787E-008	2.49914	8
	6	49	5015.63	844.684	-4111.65	1	4197.52	-78.3909	6.52206E-008	2.39918	8
	7	55	5015.63	841.027	-4115.24	1	4200.3	-78.4496	4.34542E-008	2.29921	8
	8	61	5015.63	831.981	-4130.95	1	4213.9	-78.6129	6.72091E-008	2.19924	8
	9	67	5015.63	837.535	-4147.26	1	4230.99	-78.5827	5.73192E-008	2.09928	8
	10	73	5015.63	837.297	-4150.77	1	4234.38	-78.5953	6.7225E-008	1.99931	8
	11	79	5015.63	836.562	-4162.77	1	4245.99	-78.637	6.86666E-008	1.89937	8
	12	85	5015.63	841.801	-4176.68	1	4260.67	-78.6048	5.76851E-008	1.79936	8
	13	91	5015.63	847.542	-4198.03	1	4282.73	-78.586	3.70618E-008	1.69943	8
	14	97	5015.63	834.386	-4218.88	1	4300.6	-78.8128	6.58268E-008	1.59959	8
	15	103	5015.63	837.612	-4237.22	1	4319.21	-78.8179	6.27692E-008	1.49963	8
	16	108	5015.63	835.325	-4269.46	1	4350.4	-78.9298	3.03284E-008	1.39962	8
	17	114	5015.63	845.728	-4298.1	1	4380.51	-78.8682	6.86059E-008	1.29972	8
	18	120	5015.63	835.638	-4335.21	1	4415.01	-79.0897	3.37216E-008	1.19975	8
	19	126	5015.63	837.753	-4368.2	1	4447.81	-79.1434	5.47592E-008	1.09973	8
	20	132	5015.63	845.89	-4411.16	1	4491.53	-79.1447	3.83158E-008	0.99973	8
	21	138	5015.63	841.384	-4460.2	1	4538.87	-79.3171	5.21086E-008	0.899797	8
	22	144	5015.63	838.353	-4512.82	1	4590.03	-79.4761	4.35659E-008	0.799834	8
	23	150	5015.63	836.53	-4577.95	1	4653.76	-79.6446	2.9105E-008	0.699865	8
	24	156	5015.63	844.462	-4628	1	4704.41	-79.6591	3.14633E-008	0.599877	8
	25	161	5015.63	845.825	-4696.59	1	4772.14	-79.7908	3.97327E-008	0.499956	8
	26	167	5015.63	843.524	-4764.87	1	4838.95	-79.9609	2.7975E-008	0.399995	8
	27	173	5015.63	854.987	-4831.45	1	4906.51	-79.9647	2.73778E-008	0.300065	8
	28	178	5015.63	839.449	-4898.86	1	4970.26	-80.2765	5.35314E-008	0.200095	8
	29	184	5015.63	867.439	-4974.96	1	5050.02	-80.1093	8.42008E-008	0.1002	8
	30	190	5015.63	875.702	-5067.22	1	5142.33	-80.1952	8.95622E-009	0.000211	7
	31	196	5015.63	888.224	-5169.49	1	5245.24	-80.2506	4.23486E-009	-0.100041	7
	32	201	5015.63	882.751	-5269.61	1	5343.03	-80.4903	1.35542E-008	-0.199958	7
	33	207	5015.63	878.81	-5366.71	1	5438.19	-80.7002	1.30533E-008	-0.299934	7
	34	212	5015.63	869.443	-5451.89	1	5520.78	-80.939	1.17981E-008	-0.399873	7
	35	218	5015.63	853.112	-5525.34	1	5590.81	-81.2228	5.99589E-009	-0.499857	7
	36	224	5015.63	848.43	-5593.02	1	5657	-81.3743	5.35503E-009	-0.599797	7
	37	229	5015.63	848.768	-5664.89	1	5728.13	-81.4788	8.37912E-009	-0.699772	7
	38	235	5015.63	849.029	-5727.55	1	5790.14	-81.5681	3.67198E-009	-0.799713	7
	39	241	5015.63	847.616	-5782.73	1	5844.52	-81.6611	9.65929E-009	-0.899667	7
	40	246	5015.63	851.928	-5856.45	1	5918.09	-81.7233	1.2126E-008	-0.99962	7
	41	252	5015.63	843.79	-5911.52	1	5971.44	-81.8767	4.79222E-009	-1.0997	7
	42	258	5015.63	852.592	-5964.08	1	6024.71	-81.8644	6.85773E-009	-1.19964	7
	43	263	5015.63	848.144	-6016.46	1	6075.95	-81.9759	1.02022E-008	-1.29957	7
	44	269	5015.63	856.218	-6063.45	1	6123.61	-81.9624	7.78263E-009	-1.39955	7
	45	274	5015.63	856.953	-6104.23	1	6164.09	-82.0087	2.00637E-009	-1.49952	7
	46	280	5015.63	864.121	-6143.1	1	6203.58	-81.993	1.33518E-009	-1.59944	7
	47	285	5015.63	873.729	-6170.44	1	6232	-81.9406	1.16214E-008	-1.69936	7
	48	291	5015.63	887.714	-6179.03	1	6242.47	-81.8245	1.23735E-008	-1.79931	7
	49	296	5015.63	898.699	-6170.44	1	6235.54	-81.7134	4.28371E-009	-1.8993	7
	50	301	5015.63	897.565	-6156.98	1	6222.06	-81.7058	6.92024E-009	-1.99924	7
	51	307	5015.63	909.095	-6146.87	1	6213.73	-81.5872	2.94649E-010	-2.09924	7
	52	312	5015.63	902.095	-6122.31	1	6188.41	-81.618	1.2216E-008	-2.19917	7
	53	318	5015.63	906.307	-6119.75	1	6186.49	-81.576	9.69601E-009	-2.29916	7
	54	323	5015.63	910.235	-6103.36	1	6170.86	-81.5176	7.04025E-009	-2.3991	7
	55	328	5015.63	899.71	-6102.01	1	6167.99	-81.6125	1.03139E-008	-2.49906	7
	56	334	5015.63	905.612	-6088.94	1	6155.92	-81.5404	1.04917E-008	-2.59902	7
	57	339	5015.63	900.657	-6073.61	1	6140.03	-81.5651	1.03007E-008	-2.69899	7
	58	344	5015.63	904.529	-6059.03	1	6126.17	-81.5092	1.30162E-008	-2.79896	7
	59	349	5015.63	905.8	-6049.81	1	6117.24	-81.4847	1.19282E-009	-2.89889	7
	60	355	5015.63	906.707	-6037.03	1	6104.74	-81.4585	1.64366E-009	-2.99887	7