File: OriginPro/EIS/C0_MS_pH7_02.DTA
EXPLAIN
TAG	MOTTSCHOTTKY
TITLE	LABEL	Mott-Schottky	Test &Identifier
DATE	LABEL	29-10-2009	Date
TIME	LABEL	20:36:46	Time
NOTES	NOTES	2	&Notes...
	Si/SiO2
	T=25.3oC
PSTAT	PSTAT	REF600-07089	Potentiostat
VINIT	POTEN	3.00000E+000	F	Initial &Voltage (V)
VFINAL	POTEN	-3.00000E+000	F	Final &Voltage (V)
VSTEP	QUANT	1.00000E-001	&Voltage Step (V)
FREQINIT	QUANT	1.00000E+003	Fre&quency (Hz)
VAC	QUANT	1.00000E+001	AC &Voltage (mV rms)
AREA	QUANT	1.00000E-002	&Area (cm^2)
CONDIT	TWOPARAM	T	2.00000E+001	3.00000E+000	Conditionin&g	Time(s)	E(V)
DELAY	TWOPARAM	T	2.50000E-001	0.00000E+000	Init. De&lay	Time(s)	Stab.(mV/s)
SPEED	SELECTOR	1	&Optimize for:
ZGUESS	QUANT	1.00000E+002	E&stimated Z (ohms)
OCVCURVE	TABLE	1
	Pt	T	Vf	Vm	Ach	Over
	#	s	V vs. Ref.	V	V	bits
	0	0.258333	3.67165E+000	0.00000E+000	-2.34136E-004	.............
EOC	QUANT	3.67165	Open Circuit (V)
PSTATMODEL	IQUANT	4	Pstat Model
PSTATSECTION	LABEL	REF600-07089	Pstat Section
PSTATSERIALNO	LABEL	07089	Pstat Serial Number
CTRLMODE	IQUANT	1	Control Mode
IESTAB	IQUANT	0	I/E Stability
CASPEED	IQUANT	2	Control Amp Speed
CONVENTION	IQUANT	1	Current Convention
ICHRANGE	IQUANT	2	Ich Range
ICHRANGEMODE	TOGGLE	F	Ich Auto Range
ICHOFFSETENABLE	TOGGLE	T	Ich Offset Enable
ICHOFFSET	QUANT	0	Ich Offset (V)
ICHFILTER	IQUANT	3	Ich Filter
VCHRANGE	IQUANT	2	Vch Range
VCHRANGEMODE	TOGGLE	F	Vch Auto Range
VCHOFFSETENABLE	TOGGLE	T	Vch Offset Enable
VCHOFFSET	QUANT	0	Vch Offset (V)
VCHFILTER	IQUANT	3	Vch Filter
ACHRANGE	IQUANT	2	Ach Range
ACHOFFSETENABLE	TOGGLE	F	Ach Offset Enable
ACHOFFSET	QUANT	0	Ach Offset (V)
ACHFILTER	IQUANT	1	Ach Filter
IERANGELOWERLIMIT	IQUANT	1	I/E Range Lower Limit
IERANGEMODE	TOGGLE	F	I/E AutoRange
IERANGE	IQUANT	10	I/E Range
POSFEEDENABLE	TOGGLE	F	Positive Feedback IR Comp
POSFEEDRESISTANCE	QUANT	0	Positive Feedback Resistance (ohm)
ACHSELECT	IQUANT	0	Ach Select
CABLEID	IQUANT	14	Cable ID
DCCALDATE	LABEL	14-4-2009	DC Calibration Date
ACCALDATE	LABEL	14-4-2009	AC Calibration Date
THERMOSELECT	IQUANT	0	Thermo Select
FRAMEWORKVERSION	QUANT	5.5	Framework Version
INSTRUMENTVERSION	LABEL	2.00	Instrument Version
ZCURVE	TABLE
	Pt	Time	Freq	Zreal	Zimag	Zsig	Zmod	Zphz	Idc	Vdc	IERange
	#	s	Hz	ohm	ohm	V	ohm	°	A	V	#
	0	11	998.26	1374.23	-18723.6	1	18773.9	-85.8023	1.59569E-008	2.99895	7
	1	17	998.26	1418.29	-18728.3	1	18782	-85.6693	1.39952E-008	2.89901	7
	2	23	998.26	1397.56	-18814.7	1	18866.5	-85.7518	9.47619E-009	2.79904	7
	3	28	998.26	1355.56	-18833.7	1	18882.4	-85.8832	5.28509E-009	2.69909	7
	4	34	998.26	1430.91	-18819.8	1	18874.1	-85.652	2.22981E-009	2.5991	7
	5	40	998.26	1403.24	-18873.1	1	18925.2	-85.7478	1.15675E-008	2.49918	7
	6	46	998.26	1370.56	-18891	1	18940.7	-85.8504	9.24335E-009	2.39921	7
	7	53	998.26	1459.48	-18924.6	1	18980.8	-85.59	2.46631E-009	2.29924	7
	8	59	998.26	1436.31	-19016.3	1	19070.5	-85.6806	9.95917E-009	2.19927	7
	9	64	998.26	1449.57	-19052.4	1	19107.5	-85.6491	3.38578E-009	2.0993	7
	10	70	998.26	1422.77	-19107.2	1	19160.1	-85.7415	4.88601E-010	1.99932	7
	11	76	998.26	1424.46	-19148.5	1	19201.4	-85.7456	9.60173E-009	1.8994	7
	12	81	998.26	1404.9	-19252.9	1	19304.1	-85.8265	1.31261E-010	1.79937	7
	13	87	998.26	1475.53	-19334.6	1	19390.8	-85.6359	1.48392E-008	1.69949	7
	14	92	998.26	1444.45	-19368.8	1	19422.6	-85.735	9.30243E-010	1.59958	7
	15	98	998.26	1407.68	-19525.6	1	19576.3	-85.8765	2.96923E-009	1.49965	7
	16	104	998.26	1436.44	-19603.7	1	19656.2	-85.8092	9.08969E-009	1.39967	7
	17	110	998.26	1466.6	-19754.8	1	19809.2	-85.7541	1.02738E-008	1.29972	7
	18	115	998.26	1500.44	-19919.4	1	19975.9	-85.6923	1.35748E-008	1.19979	7
	19	121	998.26	1489.14	-20077.3	1	20132.4	-85.7581	9.14342E-009	1.09974	7
	20	126	998.26	1411.97	-20268.8	1	20317.9	-86.0151	3.39846E-009	0.99975	7
	21	132	998.26	1453.01	-20494.7	1	20546.1	-85.9447	6.14224E-009	0.899786	7
	22	138	998.26	1460.72	-20783.8	1	20835.1	-85.9798	8.05682E-009	0.799852	7
	23	143	998.26	1472.12	-21017	1	21068.5	-85.9933	1.40444E-009	0.699876	7
	24	152	998.26	1527.48	-21372.3	1	21426.8	-85.912	1.26198E-008	0.599923	7
	25	160	998.26	1421.54	-21621.4	1	21668	-86.2384	1.37588E-008	0.499986	7
	26	168	998.26	1455.34	-21897.8	1	21946.1	-86.1977	1.41536E-008	0.400028	7
	27	176	998.26	1457.52	-22206.6	1	22254.4	-86.2448	1.79441E-010	0.300061	7
	28	185	998.26	1522.31	-22614.4	1	22665.6	-86.1489	4.31065E-009	0.200099	7
	29	193	998.26	1500.83	-22887.5	1	22936.7	-86.2482	2.04497E-009	0.100176	7
	30	201	998.26	1587.2	-23179.1	1	23233.4	-86.0827	1.62877E-009	0.000195	7
	31	209	998.26	1663.13	-23483.1	1	23541.9	-85.9489	7.6895E-009	-0.100019	7
	32	221	998.26	1680.13	-23998.4	1	24057.2	-85.9953	1.63723E-008	-0.199943	7
	33	235	998.26	1696.92	-24556.3	1	24614.8	-86.047	9.15531E-009	-0.299939	7
	34	249	998.26	1692.89	-24988	1	25045.2	-86.1242	1.1455E-008	-0.399881	7
	35	255	998.26	1749.37	-25557.9	1	25617.7	-86.0844	3.54855E-009	-0.499861	7
	36	261	998.26	1674.4	-25888.9	1	25943	-86.2995	3.57325E-009	-0.5998	7
	37	267	998.26	1720.29	-26244	1	26300.4	-86.2496	1.53028E-008	-0.699748	7
	38	273	998.26	1639.98	-26694.6	1	26745	-86.4845	3.76011E-009	-0.799701	7
	39	279	998.26	1563.2	-26859.4	1	26904.8	-86.6692	3.4076E-009	-0.899684	7
	40	285	998.26	1630.05	-27146.2	1	27195.1	-86.5637	2.19263E-009	-0.99965	7
	41	291	998.26	1649.3	-27595.7	1	27644.9	-86.5797	7.71087E-009	-1.09968	7
	42	297	998.26	1727.21	-27811.6	1	27865.2	-86.4463	1.14051E-008	-1.19964	7
	43	302	998.26	1577.76	-28161.9	1	28206	-86.7934	9.49072E-009	-1.29957	7
	44	308	998.26	1631.81	-28306.1	1	28353.1	-86.7006	-4.90467E-010	-1.39957	7
	45	313	998.26	1600.68	-28601.7	1	28646.5	-86.7968	6.52259E-009	-1.49951	7
	46	319	998.26	1742.59	-28677.2	1	28730.1	-86.5227	2.67279E-009	-1.59944	7
	47	325	998.26	1673.39	-28653.5	1	28702.3	-86.6577	3.88423E-009	-1.69939	7
	48	331	998.26	1671.3	-28778.3	1	28826.8	-86.6763	-1.10038E-009	-1.79934	7
	49	336	998.26	1577.57	-28983.5	1	29026.4	-86.8845	1.28583E-008	-1.89929	7
	50	341	998.26	1709.47	-28972.4	1	29022.8	-86.6233	-8.25554E-010	-1.99927	7
	51	347	998.26	1570.22	-28940.3	1	28982.9	-86.8943	1.05905E-008	-2.09922	7
	52	353	998.26	1613.78	-28843.3	1	28888.4	-86.7977	2.20251E-009	-2.19919	7
	53	358	998.26	1672.58	-28723.5	1	28772.1	-86.6674	6.24076E-010	-2.2992	7
	54	364	998.26	1595.14	-28765.2	1	28809.4	-86.826	1.10841E-008	-2.39911	7
	55	370	998.26	1538.2	-28683.1	1	28724.3	-86.9303	7.82385E-009	-2.49908	7
	56	376	998.26	1457.69	-28740.8	1	28777.7	-87.0965	1.07366E-008	-2.59903	7
	57	381	998.26	1489.52	-28747.6	1	28786.1	-87.0339	1.25933E-008	-2.69899	7
	58	387	998.26	1556.34	-28692.9	1	28735.1	-86.8952	4.30032E-009	-2.799	7
	59	393	998.26	1580.5	-28481.7	1	28525.5	-86.8238	1.36108E-008	-2.89888	7
	60	398	998.26	1605	-28567.2	1	28612.2	-86.7843	9.75093E-009	-2.99887	7