File: OriginPro/EIS/C0_MS_pH4_02.DTA
EXPLAIN
TAG	MOTTSCHOTTKY
TITLE	LABEL	Mott-Schottky	Test &Identifier
DATE	LABEL	29-10-2009	Date
TIME	LABEL	21:57:03	Time
NOTES	NOTES	2	&Notes...
	Si/SiO2
	T=25.3oC
PSTAT	PSTAT	REF600-07089	Potentiostat
VINIT	POTEN	3.00000E+000	F	Initial &Voltage (V)
VFINAL	POTEN	-3.00000E+000	F	Final &Voltage (V)
VSTEP	QUANT	1.00000E-001	&Voltage Step (V)
FREQINIT	QUANT	1.00000E+003	Fre&quency (Hz)
VAC	QUANT	1.00000E+001	AC &Voltage (mV rms)
AREA	QUANT	1.00000E-002	&Area (cm^2)
CONDIT	TWOPARAM	T	2.00000E+001	3.00000E+000	Conditionin&g	Time(s)	E(V)
DELAY	TWOPARAM	T	2.50000E-001	0.00000E+000	Init. De&lay	Time(s)	Stab.(mV/s)
SPEED	SELECTOR	1	&Optimize for:
ZGUESS	QUANT	1.00000E+002	E&stimated Z (ohms)
OCVCURVE	TABLE	1
	Pt	T	Vf	Vm	Ach	Over
	#	s	V vs. Ref.	V	V	bits
	0	0.258333	3.66017E+000	0.00000E+000	3.11922E-004	.............
EOC	QUANT	3.66017	Open Circuit (V)
PSTATMODEL	IQUANT	4	Pstat Model
PSTATSECTION	LABEL	REF600-07089	Pstat Section
PSTATSERIALNO	LABEL	07089	Pstat Serial Number
CTRLMODE	IQUANT	1	Control Mode
IESTAB	IQUANT	0	I/E Stability
CASPEED	IQUANT	2	Control Amp Speed
CONVENTION	IQUANT	1	Current Convention
ICHRANGE	IQUANT	2	Ich Range
ICHRANGEMODE	TOGGLE	F	Ich Auto Range
ICHOFFSETENABLE	TOGGLE	T	Ich Offset Enable
ICHOFFSET	QUANT	0	Ich Offset (V)
ICHFILTER	IQUANT	3	Ich Filter
VCHRANGE	IQUANT	2	Vch Range
VCHRANGEMODE	TOGGLE	F	Vch Auto Range
VCHOFFSETENABLE	TOGGLE	T	Vch Offset Enable
VCHOFFSET	QUANT	0	Vch Offset (V)
VCHFILTER	IQUANT	3	Vch Filter
ACHRANGE	IQUANT	2	Ach Range
ACHOFFSETENABLE	TOGGLE	F	Ach Offset Enable
ACHOFFSET	QUANT	0	Ach Offset (V)
ACHFILTER	IQUANT	1	Ach Filter
IERANGELOWERLIMIT	IQUANT	1	I/E Range Lower Limit
IERANGEMODE	TOGGLE	F	I/E AutoRange
IERANGE	IQUANT	10	I/E Range
POSFEEDENABLE	TOGGLE	F	Positive Feedback IR Comp
POSFEEDRESISTANCE	QUANT	0	Positive Feedback Resistance (ohm)
ACHSELECT	IQUANT	0	Ach Select
CABLEID	IQUANT	14	Cable ID
DCCALDATE	LABEL	14-4-2009	DC Calibration Date
ACCALDATE	LABEL	14-4-2009	AC Calibration Date
THERMOSELECT	IQUANT	0	Thermo Select
FRAMEWORKVERSION	QUANT	5.5	Framework Version
INSTRUMENTVERSION	LABEL	2.00	Instrument Version
ZCURVE	TABLE
	Pt	Time	Freq	Zreal	Zimag	Zsig	Zmod	Zphz	Idc	Vdc	IERange
	#	s	Hz	ohm	ohm	V	ohm	°	A	V	#
	0	10	998.26	1217.07	-18894.9	1	18934.1	-86.3145	1.81671E-008	2.99892	7
	1	16	998.26	1197.47	-18921.8	1	18959.6	-86.3788	1.08089E-008	2.89896	7
	2	21	998.26	1190.84	-19011.4	1	19048.7	-86.4158	5.02759E-009	2.799	7
	3	26	998.26	1202.34	-19050.3	1	19088.2	-86.3886	1.3911E-008	2.69907	7
	4	32	998.26	1206.77	-19082.1	1	19120.2	-86.3814	1.1155E-008	2.59909	7
	5	37	998.26	1201.22	-19071	1	19108.8	-86.3959	9.84109E-009	2.49915	7
	6	43	998.26	1225.17	-19130.7	1	19169.9	-86.3357	9.54235E-009	2.3992	7
	7	49	998.26	1254.8	-19108.8	1	19149.9	-86.243	2.79111E-010	2.29921	7
	8	54	998.26	1222.62	-19251	1	19289.8	-86.3661	6.18104E-009	2.19924	7
	9	60	998.26	1262.46	-19255.9	1	19297.3	-86.2489	5.20886E-009	2.09928	7
	10	65	998.26	1216.61	-19353	1	19391.2	-86.4029	6.03276E-009	1.9993	7
	11	71	998.26	1175.74	-19470.2	1	19505.6	-86.5443	6.70829E-009	1.89937	7
	12	76	998.26	1213.56	-19452.7	1	19490.5	-86.4302	2.48288E-009	1.79935	7
	13	81	998.26	1210.17	-19610.1	1	19647.4	-86.4687	1.97335E-009	1.69944	7
	14	87	998.26	1247.47	-19741.5	1	19780.9	-86.3843	6.5067E-009	1.59958	7
	15	93	998.26	1199.14	-19742.5	1	19778.9	-86.5242	1.00563E-008	1.49963	7
	16	98	998.26	1158.91	-19944.5	1	19978.1	-86.6744	9.39389E-009	1.39965	7
	17	104	998.26	1221.52	-20094.9	1	20132	-86.5214	5.00857E-009	1.29968	7
	18	112	998.26	1197.81	-20145.2	1	20180.8	-86.5973	5.53034E-009	1.19975	7
	19	120	998.26	1282.96	-20408.9	1	20449.2	-86.403	5.10219E-010	1.0997	7
	20	128	998.26	1177.4	-20690.8	1	20724.2	-86.7431	3.0847E-009	0.99972	7
	21	137	998.26	1240.11	-20925.9	1	20962.7	-86.6085	3.22283E-009	0.899776	7
	22	145	998.26	1189.07	-21180.1	1	21213.5	-86.7868	6.53161E-009	0.799827	7
	23	153	998.26	1289.03	-21427.4	1	21466.1	-86.5573	1.34327E-008	0.699887	7
	24	167	998.26	1261.83	-21832.3	1	21868.8	-86.6922	6.1886E-009	0.599899	7
	25	178	998.26	1286.8	-22095.3	1	22132.7	-86.6669	1.1539E-008	0.499973	7
	26	184	998.26	1160.03	-22341.7	1	22371.8	-87.0277	7.60919E-009	0.400005	7
	27	190	998.26	1308.45	-22661.3	1	22699	-86.6954	5.23508E-009	0.300063	7
	28	195	998.26	1229.46	-23070	1	23102.8	-86.9495	5.00024E-009	0.200092	7
	29	201	998.26	1155.42	-23386.8	1	23415.3	-87.1716	6.10707E-009	0.100177	7
	30	207	998.26	1339.7	-23762.6	1	23800.4	-86.7732	1.4213E-008	0.000217	7
	31	212	998.26	1421.82	-24184	1	24225.8	-86.6353	1.24436E-008	-0.100022	7
	32	218	998.26	1474.37	-24579.5	1	24623.7	-86.5673	1.0131E-008	-0.199966	7
	33	224	998.26	1375.49	-25249.5	1	25287	-86.8818	3.64678E-008	-0.299935	8
	34	230	998.26	1395.55	-25613.5	1	25651.5	-86.8813	5.10959E-009	-0.399884	7
	35	236	998.26	1296.23	-26022.1	1	26054.4	-87.1483	9.48472E-009	-0.499853	7
	36	241	998.26	1271.42	-26527.6	1	26558.1	-87.256	5.89948E-009	-0.599796	7
	37	246	998.26	1403.7	-26784.6	1	26821.3	-87	4.9959E-009	-0.699776	7
	38	252	998.26	1243.09	-27153.4	1	27181.8	-87.3788	6.91967E-009	-0.799693	7
	39	257	998.26	1305.31	-27437.1	1	27468.1	-87.2762	5.02408E-009	-0.899683	7
	40	262	998.26	1260.54	-27765.4	1	27794	-87.4006	-1.66525E-010	-0.99966	7
	41	267	998.26	1287.83	-28113.5	1	28143	-87.3772	9.86209E-009	-1.09968	7
	42	273	998.26	1298.53	-28311.3	1	28341.1	-87.3739	8.30857E-009	-1.19964	7
	43	278	998.26	1288.77	-28591.2	1	28620.3	-87.4191	3.29412E-009	-1.29959	7
	44	284	998.26	1348.66	-28757.8	1	28789.4	-87.315	5.77283E-010	-1.39958	7
	45	289	998.26	1366.72	-29062.7	1	29094.8	-87.3075	2.89919E-009	-1.49952	7
	46	294	998.26	1418.66	-29036.4	1	29071	-87.2029	7.3009E-009	-1.59943	7
	47	300	998.26	1448.76	-29155.1	1	29191.1	-87.1552	5.25809E-009	-1.69938	7
	48	305	998.26	1388.84	-29185.8	1	29218.8	-87.2756	4.71165E-011	-1.79934	7
	49	310	998.26	1366.1	-29079	1	29111	-87.3103	2.19599E-009	-1.89931	7
	50	315	998.26	1443.39	-29041.4	1	29077.2	-87.1547	9.38401E-009	-1.99924	7
	51	321	998.26	1359.31	-29142.2	1	29173.9	-87.3294	9.88132E-009	-2.09922	7
	52	326	998.26	1264.21	-28985.5	1	29013	-87.5026	1.0333E-008	-2.19918	7
	53	332	998.26	1310.89	-28844.8	1	28874.5	-87.3979	2.27113E-010	-2.29919	7
	54	338	998.26	1340.77	-28794.1	1	28825.3	-87.334	4.32605E-009	-2.39911	7
	55	343	998.26	1229.6	-28909.8	1	28935.9	-87.5645	4.26654E-009	-2.49909	7
	56	348	998.26	1320.83	-28858.6	1	28888.8	-87.3795	1.94175E-009	-2.59904	7
	57	354	998.26	1172.32	-28834.8	1	28858.6	-87.6718	1.00216E-008	-2.69899	7
	58	359	998.26	1416.72	-28772.9	1	28807.7	-87.1811	6.03325E-010	-2.79899	7
	59	364	998.26	1326.97	-28668.1	1	28698.8	-87.3498	8.13542E-009	-2.89887	7
	60	370	998.26	1353.06	-28625.2	1	28657.2	-87.2938	8.73438E-009	-2.99887	7