File: OriginPro/EIS/C0_MS_pH4_03.DTA
EXPLAIN
TAG	MOTTSCHOTTKY
TITLE	LABEL	Mott-Schottky	Test &Identifier
DATE	LABEL	29-10-2009	Date
TIME	LABEL	22:04:01	Time
NOTES	NOTES	2	&Notes...
	Si/SiO2
	T=25.3oC
PSTAT	PSTAT	REF600-07089	Potentiostat
VINIT	POTEN	3.00000E+000	F	Initial &Voltage (V)
VFINAL	POTEN	-3.00000E+000	F	Final &Voltage (V)
VSTEP	QUANT	1.00000E-001	&Voltage Step (V)
FREQINIT	QUANT	1.00000E+003	Fre&quency (Hz)
VAC	QUANT	1.00000E+001	AC &Voltage (mV rms)
AREA	QUANT	1.00000E-002	&Area (cm^2)
CONDIT	TWOPARAM	T	2.00000E+001	3.00000E+000	Conditionin&g	Time(s)	E(V)
DELAY	TWOPARAM	T	2.50000E-001	0.00000E+000	Init. De&lay	Time(s)	Stab.(mV/s)
SPEED	SELECTOR	1	&Optimize for:
ZGUESS	QUANT	1.00000E+002	E&stimated Z (ohms)
OCVCURVE	TABLE	1
	Pt	T	Vf	Vm	Ach	Over
	#	s	V vs. Ref.	V	V	bits
	0	0.258333	3.66003E+000	0.00000E+000	-1.88004E-004	.............
EOC	QUANT	3.66003	Open Circuit (V)
PSTATMODEL	IQUANT	4	Pstat Model
PSTATSECTION	LABEL	REF600-07089	Pstat Section
PSTATSERIALNO	LABEL	07089	Pstat Serial Number
CTRLMODE	IQUANT	1	Control Mode
IESTAB	IQUANT	0	I/E Stability
CASPEED	IQUANT	2	Control Amp Speed
CONVENTION	IQUANT	1	Current Convention
ICHRANGE	IQUANT	2	Ich Range
ICHRANGEMODE	TOGGLE	F	Ich Auto Range
ICHOFFSETENABLE	TOGGLE	T	Ich Offset Enable
ICHOFFSET	QUANT	0	Ich Offset (V)
ICHFILTER	IQUANT	3	Ich Filter
VCHRANGE	IQUANT	2	Vch Range
VCHRANGEMODE	TOGGLE	F	Vch Auto Range
VCHOFFSETENABLE	TOGGLE	T	Vch Offset Enable
VCHOFFSET	QUANT	0	Vch Offset (V)
VCHFILTER	IQUANT	3	Vch Filter
ACHRANGE	IQUANT	2	Ach Range
ACHOFFSETENABLE	TOGGLE	F	Ach Offset Enable
ACHOFFSET	QUANT	0	Ach Offset (V)
ACHFILTER	IQUANT	1	Ach Filter
IERANGELOWERLIMIT	IQUANT	1	I/E Range Lower Limit
IERANGEMODE	TOGGLE	F	I/E AutoRange
IERANGE	IQUANT	10	I/E Range
POSFEEDENABLE	TOGGLE	F	Positive Feedback IR Comp
POSFEEDRESISTANCE	QUANT	0	Positive Feedback Resistance (ohm)
ACHSELECT	IQUANT	0	Ach Select
CABLEID	IQUANT	14	Cable ID
DCCALDATE	LABEL	14-4-2009	DC Calibration Date
ACCALDATE	LABEL	14-4-2009	AC Calibration Date
THERMOSELECT	IQUANT	0	Thermo Select
FRAMEWORKVERSION	QUANT	5.5	Framework Version
INSTRUMENTVERSION	LABEL	2.00	Instrument Version
ZCURVE	TABLE
	Pt	Time	Freq	Zreal	Zimag	Zsig	Zmod	Zphz	Idc	Vdc	IERange
	#	s	Hz	ohm	ohm	V	ohm	°	A	V	#
	0	10	998.26	1282.8	-18933	1	18976.4	-86.1239	1.573E-008	2.99893	7
	1	15	998.26	1205.84	-18934.3	1	18972.6	-86.356	4.9412E-009	2.89895	7
	2	21	998.26	1196.11	-18980.3	1	19017.9	-86.3941	9.19977E-009	2.79902	7
	3	26	998.26	1238.87	-18979.4	1	19019.8	-86.2653	4.60149E-009	2.69905	7
	4	31	998.26	1214.53	-19128.7	1	19167.2	-86.367	3.60526E-009	2.59907	7
	5	37	998.26	1187.07	-19154.3	1	19191	-86.4537	7.26287E-009	2.49915	7
	6	42	998.26	1158.43	-19167.7	1	19202.7	-86.5414	4.15559E-009	2.39918	7
	7	48	998.26	1217.91	-19157.1	1	19195.7	-86.3623	3.60196E-009	2.29922	7
	8	54	998.26	1261.27	-19195.6	1	19237	-86.2407	8.86891E-009	2.19925	7
	9	59	998.26	1225.62	-19199.5	1	19238.6	-86.3474	1.2191E-008	2.09931	7
	10	65	998.26	1179.38	-19305.5	1	19341.5	-86.5041	5.24159E-009	1.99931	7
	11	70	998.26	1173.21	-19408.1	1	19443.5	-86.5407	9.59843E-009	1.89938	7
	12	76	998.26	1185.49	-19432.4	1	19468.5	-86.509	1.22659E-008	1.79939	7
	13	82	998.26	1146.72	-19507.2	1	19540.9	-86.6358	1.03274E-008	1.69948	7
	14	88	998.26	1215.41	-19696.5	1	19734	-86.4689	1.24365E-009	1.59958	7
	15	94	998.26	1193.19	-19754.9	1	19790.9	-86.5436	1.12632E-008	1.49965	7
	16	99	998.26	1173.9	-19924	1	19958.5	-86.6281	5.64703E-009	1.39965	7
	17	105	998.26	1200.86	-20050.1	1	20086	-86.5725	9.20724E-009	1.29972	7
	18	113	998.26	1174.65	-20232.5	1	20266.5	-86.6773	7.42818E-009	1.19976	7
	19	121	998.26	1163.4	-20445.6	1	20478.7	-86.7433	8.87073E-009	1.09972	7
	20	130	998.26	1220.39	-20699	1	20734.9	-86.6258	1.41365E-008	0.99976	7
	21	138	998.26	1219.58	-20934.7	1	20970.2	-86.6659	4.44435E-009	0.899781	7
	22	146	998.26	1273.35	-21170.3	1	21208.6	-86.5579	3.33161E-009	0.799829	7
	23	154	998.26	1140.46	-21389.8	1	21420.2	-86.948	1.03166E-008	0.699897	7
	24	165	998.26	1168.99	-21799	1	21830.3	-86.9304	8.42536E-009	0.599905	7
	25	179	998.26	1215.82	-22068	1	22101.5	-86.8465	1.48619E-008	0.499989	7
	26	185	998.26	1221.34	-22427.2	1	22460.5	-86.8829	1.36466E-008	0.400027	7
	27	191	998.26	1261.43	-22706.7	1	22741.7	-86.8203	6.35919E-009	0.300083	7
	28	196	998.26	1254.23	-23035.1	1	23069.2	-86.8834	9.72344E-010	0.200092	7
	29	202	998.26	1324.26	-23355.6	1	23393.1	-86.7548	4.30483E-009	0.100185	7
	30	208	998.26	1322.37	-23724.9	1	23761.8	-86.8098	1.09618E-008	0.000238	7
	31	213	998.26	1233.55	-24085.6	1	24117.2	-87.0681	4.85504E-008	-0.099995	8
	32	219	998.26	1507.98	-24759.7	1	24805.6	-86.5147	9.41092E-010	-0.199969	7
	33	224	998.26	1438.76	-25173.4	1	25214.4	-86.7289	2.37367E-009	-0.299937	7
	34	230	998.26	1360.03	-25635.8	1	25671.8	-86.9632	1.80652E-009	-0.399885	7
	35	236	998.26	1421.32	-25992.5	1	26031.3	-86.8701	2.29349E-009	-0.499861	7
	36	242	998.26	1297.5	-26598.9	1	26630.5	-87.2073	3.38966E-009	-0.599796	7
	37	248	998.26	1300.95	-26861.1	1	26892.6	-87.2272	2.61543E-009	-0.699778	7
	38	253	998.26	1368.88	-27101.4	1	27135.9	-87.1085	5.82557E-009	-0.7997	7
	39	258	998.26	1341.55	-27436.2	1	27469	-87.2006	9.9734E-009	-0.899662	7
	40	264	998.26	1280.23	-27704.9	1	27734.4	-87.3543	7.1297E-009	-0.99963	7
	41	270	998.26	1071.82	-28085.9	1	28106.4	-87.8145	1.07294E-008	-1.09967	7
	42	276	998.26	1250.53	-28288.2	1	28315.8	-87.4688	9.16351E-009	-1.19963	7
	43	281	998.26	1227.89	-28680.9	1	28707.2	-87.5486	9.56703E-009	-1.29956	7
	44	286	998.26	1390.52	-28830.9	1	28864.4	-87.2388	3.85353E-009	-1.39956	7
	45	292	998.26	1390.05	-29125.8	1	29159	-87.2676	1.0918E-009	-1.49953	7
	46	297	998.26	1407.68	-29270.1	1	29304	-87.2466	1.3778E-009	-1.59944	7
	47	302	998.26	1422.82	-29325.3	1	29359.8	-87.2223	1.26882E-008	-1.69937	7
	48	308	998.26	1496.76	-29233.4	1	29271.7	-87.069	1.13493E-008	-1.79931	7
	49	313	998.26	1396.51	-29184.9	1	29218.2	-87.2605	7.55643E-009	-1.89928	7
	50	319	998.26	1224.45	-29222.7	1	29248.3	-87.6007	3.47727E-009	-1.99926	7
	51	324	998.26	1483.25	-29003.1	1	29041	-87.0724	1.34482E-008	-2.09921	7
	52	329	998.26	1420.6	-28946.5	1	28981.3	-87.1904	2.22756E-009	-2.19919	7
	53	335	998.26	1205.44	-28927.2	1	28952.3	-87.6138	1.15646E-008	-2.29917	7
	54	341	998.26	1346.61	-28927.4	1	28958.8	-87.3347	1.0443E-008	-2.3991	7
	55	346	998.26	1282.22	-28893.2	1	28921.6	-87.459	1.16783E-008	-2.49906	7
	56	352	998.26	1357.96	-28881.4	1	28913.3	-87.308	4.12596E-009	-2.59904	7
	57	357	998.26	1394.76	-28689.3	1	28723.2	-87.2167	-2.33081E-010	-2.69902	7
	58	363	998.26	1341.62	-28724.6	1	28755.9	-87.3259	5.02488E-009	-2.79898	7
	59	368	998.26	1315.86	-28801.7	1	28831.7	-87.3842	1.22992E-008	-2.89888	7
	60	374	998.26	1427.25	-28826.6	1	28861.9	-87.1655	6.01602E-009	-2.99888	7