File: OriginPro/EIS/C0_MS_pH4_06.DTA
EXPLAIN
TAG	MOTTSCHOTTKY
TITLE	LABEL	Mott-Schottky	Test &Identifier
DATE	LABEL	29-10-2009	Date
TIME	LABEL	22:45:09	Time
NOTES	NOTES	2	&Notes...
	Si/SiO2
	T=25.3oC
PSTAT	PSTAT	REF600-07089	Potentiostat
VINIT	POTEN	3.00000E+000	F	Initial &Voltage (V)
VFINAL	POTEN	-3.00000E+000	F	Final &Voltage (V)
VSTEP	QUANT	1.00000E-001	&Voltage Step (V)
FREQINIT	QUANT	1.00000E+004	Fre&quency (Hz)
VAC	QUANT	1.00000E+001	AC &Voltage (mV rms)
AREA	QUANT	1.00000E-002	&Area (cm^2)
CONDIT	TWOPARAM	T	2.00000E+001	3.00000E+000	Conditionin&g	Time(s)	E(V)
DELAY	TWOPARAM	T	2.50000E-001	0.00000E+000	Init. De&lay	Time(s)	Stab.(mV/s)
SPEED	SELECTOR	1	&Optimize for:
ZGUESS	QUANT	1.00000E+002	E&stimated Z (ohms)
OCVCURVE	TABLE	1
	Pt	T	Vf	Vm	Ach	Over
	#	s	V vs. Ref.	V	V	bits
	0	0.258333	3.65966E+000	0.00000E+000	2.99856E-004	.............
EOC	QUANT	3.65966	Open Circuit (V)
PSTATMODEL	IQUANT	4	Pstat Model
PSTATSECTION	LABEL	REF600-07089	Pstat Section
PSTATSERIALNO	LABEL	07089	Pstat Serial Number
CTRLMODE	IQUANT	1	Control Mode
IESTAB	IQUANT	0	I/E Stability
CASPEED	IQUANT	2	Control Amp Speed
CONVENTION	IQUANT	1	Current Convention
ICHRANGE	IQUANT	2	Ich Range
ICHRANGEMODE	TOGGLE	F	Ich Auto Range
ICHOFFSETENABLE	TOGGLE	T	Ich Offset Enable
ICHOFFSET	QUANT	0	Ich Offset (V)
ICHFILTER	IQUANT	3	Ich Filter
VCHRANGE	IQUANT	2	Vch Range
VCHRANGEMODE	TOGGLE	F	Vch Auto Range
VCHOFFSETENABLE	TOGGLE	T	Vch Offset Enable
VCHOFFSET	QUANT	0	Vch Offset (V)
VCHFILTER	IQUANT	3	Vch Filter
ACHRANGE	IQUANT	2	Ach Range
ACHOFFSETENABLE	TOGGLE	F	Ach Offset Enable
ACHOFFSET	QUANT	0	Ach Offset (V)
ACHFILTER	IQUANT	1	Ach Filter
IERANGELOWERLIMIT	IQUANT	1	I/E Range Lower Limit
IERANGEMODE	TOGGLE	F	I/E AutoRange
IERANGE	IQUANT	10	I/E Range
POSFEEDENABLE	TOGGLE	F	Positive Feedback IR Comp
POSFEEDRESISTANCE	QUANT	0	Positive Feedback Resistance (ohm)
ACHSELECT	IQUANT	0	Ach Select
CABLEID	IQUANT	14	Cable ID
DCCALDATE	LABEL	14-4-2009	DC Calibration Date
ACCALDATE	LABEL	14-4-2009	AC Calibration Date
THERMOSELECT	IQUANT	0	Thermo Select
FRAMEWORKVERSION	QUANT	5.5	Framework Version
INSTRUMENTVERSION	LABEL	2.00	Instrument Version
ZCURVE	TABLE
	Pt	Time	Freq	Zreal	Zimag	Zsig	Zmod	Zphz	Idc	Vdc	IERange
	#	s	Hz	ohm	ohm	V	ohm	°	A	V	#
	0	10	10078.1	623.054	-2165.86	1	2253.69	-73.951	1.11837E-007	2.99891	8
	1	16	10078.1	621.274	-2167	1	2254.3	-74.0025	8.08425E-008	2.89894	8
	2	21	10078.1	619.943	-2169.4	1	2256.24	-74.0518	9.05992E-008	2.799	8
	3	27	10078.1	619.477	-2173	1	2259.57	-74.0882	6.17911E-008	2.69904	8
	4	32	10078.1	619.912	-2177.38	1	2263.9	-74.108	8.35348E-008	2.59908	8
	5	38	10078.1	619.66	-2179.18	1	2265.56	-74.1266	6.80616E-008	2.49916	8
	6	44	10078.1	619.747	-2181.46	1	2267.78	-74.1403	5.94238E-008	2.39919	8
	7	50	10078.1	621.293	-2186.15	1	2272.72	-74.1351	3.55705E-008	2.2992	8
	8	55	10078.1	620.45	-2192.36	1	2278.47	-74.1982	4.08723E-008	2.19921	8
	9	61	10078.1	616.96	-2196.73	1	2281.72	-74.3124	7.78088E-008	2.0993	8
	10	67	10078.1	622.853	-2205.25	1	2291.53	-74.2282	7.53072E-008	1.99932	8
	11	73	10078.1	620.977	-2209.95	1	2295.54	-74.3051	5.5365E-008	1.89936	8
	12	78	10078.1	620.717	-2216.13	1	2301.41	-74.3529	5.32626E-008	1.79935	8
	13	84	10078.1	621.415	-2226.81	1	2311.89	-74.4077	6.53123E-008	1.69945	8
	14	90	10078.1	621.647	-2234.44	1	2319.3	-74.4528	8.08394E-008	1.5996	8
	15	96	10078.1	620.909	-2250.03	1	2334.13	-74.5728	6.22419E-008	1.49962	8
	16	101	10078.1	621.011	-2260.55	1	2344.3	-74.6388	6.47263E-008	1.39964	8
	17	110	10078.1	619.188	-2276.76	1	2359.45	-74.7858	7.47048E-008	1.29971	8
	18	118	10078.1	619.431	-2289.74	1	2372.04	-74.8624	6.85503E-008	1.19975	8
	19	124	10078.1	622.705	-2311.3	1	2393.72	-74.9215	6.29107E-008	1.0997	8
	20	130	10078.1	620.925	-2333.43	1	2414.63	-75.0989	6.3921E-008	0.99975	8
	21	136	10078.1	620.115	-2356.41	1	2436.64	-75.2563	6.55389E-008	0.899799	8
	22	142	10078.1	621.21	-2384.11	1	2463.72	-75.3956	4.66071E-008	0.799822	8
	23	148	10078.1	622.522	-2413.88	1	2492.86	-75.539	8.15172E-008	0.699913	8
	24	154	10078.1	620.871	-2442.01	1	2519.7	-75.735	3.95642E-008	0.5999	8
	25	160	10078.1	624.494	-2476.3	1	2553.83	-75.8458	3.08392E-008	0.499955	8
	26	165	10078.1	622.942	-2508.11	1	2584.32	-76.0516	6.73115E-008	0.400027	8
	27	171	10078.1	626.95	-2541.33	1	2617.52	-76.1418	4.85453E-008	0.300068	8
	28	177	10078.1	629.571	-2581.35	1	2657.01	-76.2936	5.08061E-008	0.200089	8
	29	182	10078.1	637.824	-2620.22	1	2696.73	-76.3189	5.91223E-008	0.100184	8
	30	188	10078.1	645.065	-2664.11	1	2741.09	-76.3888	7.03407E-008	0.000226	8
	31	194	10078.1	645.218	-2716.4	1	2791.97	-76.6383	4.18676E-008	-0.100047	8
	32	200	10078.1	641.781	-2767.42	1	2840.86	-76.9436	4.13642E-008	-0.199984	8
	33	205	10078.1	637.7	-2811.48	1	2882.9	-77.2204	4.49881E-008	-0.299958	8
	34	211	10078.1	629.558	-2851.99	1	2920.65	-77.552	9.06201E-008	-0.399849	8
	35	216	10078.1	626.99	-2888.37	1	2955.64	-77.7526	5.53794E-008	-0.499848	8
	36	222	10078.1	623.969	-2922.39	1	2988.26	-77.9475	7.02727E-008	-0.599766	8
	37	228	10078.1	625.334	-2953.96	1	3019.42	-78.0473	3.68043E-008	-0.699776	8
	38	233	10078.1	622.094	-2981.24	1	3045.45	-78.2132	5.06195E-008	-0.799706	8
	39	239	10078.1	621.433	-3013.56	1	3076.97	-78.3482	7.85505E-008	-0.899648	8
	40	244	10078.1	623.862	-3044.5	1	3107.76	-78.4196	7.60684E-008	-0.99961	8
	41	250	10078.1	626.728	-3074.24	1	3137.47	-78.4773	3.88662E-008	-1.0997	8
	42	255	10078.1	619.302	-3102.05	1	3163.27	-78.7097	6.25157E-008	-1.19962	8
	43	260	10078.1	630	-3132.93	1	3195.64	-78.63	3.6942E-008	-1.29959	8
	44	266	10078.1	627.949	-3149.35	1	3211.34	-78.7237	4.43729E-008	-1.39957	8
	45	271	10078.1	624.619	-3177.73	1	3238.54	-78.8796	5.33138E-008	-1.49952	8
	46	277	10078.1	626.35	-3195.46	1	3256.26	-78.9099	7.34016E-008	-1.59941	8
	47	282	10078.1	635.911	-3209.32	1	3271.72	-78.7923	7.28062E-008	-1.69936	8
	48	288	10078.1	644.517	-3220.78	1	3284.63	-78.6839	6.30394E-008	-1.79931	8
	49	293	10078.1	651.486	-3221.53	1	3286.74	-78.5673	3.99218E-008	-1.89932	8
	50	299	10078.1	658.288	-3212.44	1	3279.19	-78.4194	5.02932E-008	-1.99925	8
	51	304	10078.1	657.639	-3206.77	1	3273.51	-78.4106	4.72319E-008	-2.09923	8
	52	309	10078.1	661.314	-3200.13	1	3267.74	-78.324	8.9011E-008	-2.19917	8
	53	315	10078.1	662.698	-3195.97	1	3263.96	-78.2855	7.25709E-008	-2.29918	8
	54	321	10078.1	664.872	-3184.9	1	3253.56	-78.2084	5.27161E-008	-2.39913	8
	55	326	10078.1	662.961	-3184.21	1	3252.49	-78.2389	8.81622E-008	-2.49906	8
	56	332	10078.1	671.487	-3175.76	1	3245.97	-78.0611	4.96288E-008	-2.59905	8
	57	337	10078.1	666.414	-3167.33	1	3236.68	-78.1181	3.86037E-008	-2.69902	8
	58	342	10078.1	664.182	-3164.73	1	3233.68	-78.1474	7.56268E-008	-2.79896	8
	59	348	10078.1	665.296	-3161.11	1	3230.36	-78.1148	6.29641E-008	-2.89889	8
	60	353	10078.1	669.868	-3152.66	1	3223.04	-78.0043	8.00655E-008	-2.99885	8