File: OriginPro/EIS/C0_MS_pH10_01.DTA
EXPLAIN
TAG	MOTTSCHOTTKY
TITLE	LABEL	Mott-Schottky	Test &Identifier
DATE	LABEL	29-10-2009	Date
TIME	LABEL	23:17:24	Time
NOTES	NOTES	2	&Notes...
	Si/SiO2
	T=25.3oC
PSTAT	PSTAT	REF600-07089	Potentiostat
VINIT	POTEN	3.00000E+000	F	Initial &Voltage (V)
VFINAL	POTEN	-3.00000E+000	F	Final &Voltage (V)
VSTEP	QUANT	1.00000E-001	&Voltage Step (V)
FREQINIT	QUANT	1.00000E+003	Fre&quency (Hz)
VAC	QUANT	1.00000E+001	AC &Voltage (mV rms)
AREA	QUANT	1.00000E-002	&Area (cm^2)
CONDIT	TWOPARAM	T	2.00000E+001	3.00000E+000	Conditionin&g	Time(s)	E(V)
DELAY	TWOPARAM	T	2.50000E-001	0.00000E+000	Init. De&lay	Time(s)	Stab.(mV/s)
SPEED	SELECTOR	1	&Optimize for:
ZGUESS	QUANT	1.00000E+002	E&stimated Z (ohms)
OCVCURVE	TABLE	1
	Pt	T	Vf	Vm	Ach	Over
	#	s	V vs. Ref.	V	V	bits
	0	0.258333	3.65977E+000	0.00000E+000	1.42297E-004	.............
EOC	QUANT	3.65977	Open Circuit (V)
PSTATMODEL	IQUANT	4	Pstat Model
PSTATSECTION	LABEL	REF600-07089	Pstat Section
PSTATSERIALNO	LABEL	07089	Pstat Serial Number
CTRLMODE	IQUANT	1	Control Mode
IESTAB	IQUANT	0	I/E Stability
CASPEED	IQUANT	2	Control Amp Speed
CONVENTION	IQUANT	1	Current Convention
ICHRANGE	IQUANT	2	Ich Range
ICHRANGEMODE	TOGGLE	F	Ich Auto Range
ICHOFFSETENABLE	TOGGLE	T	Ich Offset Enable
ICHOFFSET	QUANT	0	Ich Offset (V)
ICHFILTER	IQUANT	3	Ich Filter
VCHRANGE	IQUANT	2	Vch Range
VCHRANGEMODE	TOGGLE	F	Vch Auto Range
VCHOFFSETENABLE	TOGGLE	T	Vch Offset Enable
VCHOFFSET	QUANT	0	Vch Offset (V)
VCHFILTER	IQUANT	3	Vch Filter
ACHRANGE	IQUANT	2	Ach Range
ACHOFFSETENABLE	TOGGLE	F	Ach Offset Enable
ACHOFFSET	QUANT	0	Ach Offset (V)
ACHFILTER	IQUANT	2	Ach Filter
IERANGELOWERLIMIT	IQUANT	1	I/E Range Lower Limit
IERANGEMODE	TOGGLE	F	I/E AutoRange
IERANGE	IQUANT	10	I/E Range
POSFEEDENABLE	TOGGLE	F	Positive Feedback IR Comp
POSFEEDRESISTANCE	QUANT	0	Positive Feedback Resistance (ohm)
ACHSELECT	IQUANT	0	Ach Select
CABLEID	IQUANT	14	Cable ID
DCCALDATE	LABEL	14-4-2009	DC Calibration Date
ACCALDATE	LABEL	14-4-2009	AC Calibration Date
THERMOSELECT	IQUANT	0	Thermo Select
FRAMEWORKVERSION	QUANT	5.5	Framework Version
INSTRUMENTVERSION	LABEL	2.00	Instrument Version
ZCURVE	TABLE
	Pt	Time	Freq	Zreal	Zimag	Zsig	Zmod	Zphz	Idc	Vdc	IERange
	#	s	Hz	ohm	ohm	V	ohm	°	A	V	#
	0	10	998.26	1202.01	-18324.9	1	18364.3	-86.2471	1.84114E-008	2.99891	7
	1	15	998.26	1230.27	-18343.3	1	18384.5	-86.163	1.41643E-008	2.89895	7
	2	21	998.26	1275.97	-18356.1	1	18400.4	-86.0237	1.20937E-008	2.799	7
	3	26	998.26	1327.61	-18379.8	1	18427.7	-85.8686	3.34142E-009	2.69903	7
	4	32	998.26	1283.12	-18368.3	1	18413.1	-86.0041	5.38432E-009	2.59905	7
	5	37	998.26	1275.48	-18409.7	1	18453.9	-86.0367	7.0184E-009	2.49913	7
	6	43	998.26	1298.38	-18441.2	1	18486.9	-85.9726	2.91185E-009	2.39916	7
	7	49	998.26	1269.03	-18475.1	1	18518.6	-86.0706	1.27326E-009	2.29921	7
	8	54	998.26	1264.29	-18620.5	1	18663.4	-86.1157	1.13376E-008	2.19925	7
	9	60	998.26	1267.88	-18517	1	18560.3	-86.083	1.98889E-009	2.09927	7
	10	66	998.26	1264.27	-18614.6	1	18657.5	-86.1145	1.24604E-008	1.99932	7
	11	71	998.26	1261.36	-18648.2	1	18690.8	-86.1304	1.19818E-008	1.89939	7
	12	77	998.26	1259.36	-18751.3	1	18793.5	-86.1577	2.28537E-009	1.79935	7
	13	82	998.26	1293.33	-18779.8	1	18824.3	-86.0604	2.69428E-009	1.69945	7
	14	88	998.26	1275.23	-18810.9	1	18854.1	-86.1217	1.00197E-008	1.59959	7
	15	96	998.26	1291.82	-18791.4	1	18835.7	-86.0674	7.11772E-009	1.49962	7
	16	105	998.26	1284.3	-18946.9	1	18990.4	-86.1222	8.40869E-009	1.39964	7
	17	113	998.26	1303.2	-19103.5	1	19147.9	-86.0975	5.5985E-009	1.29968	7
	18	121	998.26	1261.15	-19152.4	1	19193.9	-86.2326	1.25985E-008	1.19976	7
	19	129	998.26	1255.78	-19367.6	1	19408.3	-86.2902	1.29017E-008	1.09973	7
	20	140	998.26	1293.94	-19484.8	1	19527.7	-86.2007	1.31399E-008	0.99975	7
	21	154	998.26	1327.83	-19632.8	1	19677.7	-86.1308	1.33282E-008	0.899796	7
	22	160	998.26	1288.51	-19829.9	1	19871.7	-86.2822	8.31875E-009	0.799836	7
	23	166	998.26	1281.69	-19987.2	1	20028.3	-86.3309	-1.46642E-010	0.699868	7
	24	171	998.26	1329.8	-20243.8	1	20287.4	-86.2417	7.1778E-009	0.599914	7
	25	177	998.26	1276.58	-20456.2	1	20496	-86.4291	1.3454E-009	0.499955	7
	26	183	998.26	1247.32	-20727.9	1	20765.4	-86.5563	9.5394E-009	0.400016	7
	27	188	998.26	1301.43	-21059.9	1	21100	-86.4638	3.27118E-009	0.300063	7
	28	194	998.26	1343.11	-21404.1	1	21446.2	-86.4094	9.87191E-010	0.200084	7
	29	200	998.26	1331.77	-21673.1	1	21714	-86.4837	1.09244E-008	0.100186	7
	30	205	998.26	1341.63	-22034.8	1	22075.7	-86.5158	1.07451E-008	0.000218	7
	31	211	998.26	1354.47	-22332.1	1	22373.1	-86.5292	1.00066E-008	-0.100019	7
	32	216	998.26	1421.36	-22614.6	1	22659.3	-86.4036	2.53844E-010	-0.199983	7
	33	222	998.26	1522.63	-22907.6	1	22958.2	-86.1972	2.06763E-009	-0.299958	7
	34	228	998.26	1431.16	-23364	1	23407.8	-86.4947	1.11569E-008	-0.399863	7
	35	233	998.26	1661.24	-23775.6	1	23833.5	-86.0031	6.75508E-009	-0.499849	7
	36	239	998.26	1568.6	-24292.2	1	24342.8	-86.3054	3.78992E-009	-0.599805	7
	37	245	998.26	1573.65	-24790.3	1	24840.2	-86.3678	3.18879E-009	-0.699769	7
	38	251	998.26	1492.41	-25287.6	1	25331.6	-86.6225	9.2034E-010	-0.799705	7
	39	256	998.26	1355.88	-25717.5	1	25753.3	-86.9821	8.24143E-010	-0.899677	7
	40	262	998.26	1434.38	-25990.7	1	26030.2	-86.8411	7.68718E-010	-0.99964	7
	41	268	998.26	1328.47	-26296.7	1	26330.2	-87.108	1.08355E-008	-1.09967	7
	42	273	998.26	1372	-26524.6	1	26560.1	-87.039	7.09149E-009	-1.19962	7
	43	279	998.26	1361.7	-26924.3	1	26958.7	-87.1047	1.82695E-009	-1.29958	7
	44	284	998.26	1423.98	-27339.9	1	27377	-87.0185	8.64055E-009	-1.39954	7
	45	289	998.26	1454.5	-27289.9	1	27328.6	-86.9491	4.36954E-009	-1.49952	7
	46	295	998.26	1467.2	-27717.9	1	27756.7	-86.97	5.35847E-009	-1.59943	7
	47	300	998.26	1449.08	-27797.2	1	27835	-87.0159	1.62197E-009	-1.69938	7
	48	306	998.26	1486.34	-28054.6	1	28093.9	-86.9673	8.2205E-009	-1.79931	7
	49	312	998.26	1464.23	-28079.8	1	28117.9	-87.015	2.34327E-010	-1.89932	7
	50	317	998.26	1497.79	-28123.2	1	28163	-86.9514	7.20781E-009	-1.99924	7
	51	323	998.26	1569.41	-28063.6	1	28107.4	-86.7992	5.09226E-010	-2.09924	7
	52	329	998.26	1468.72	-28208.2	1	28246.4	-87.0195	1.22039E-008	-2.19917	7
	53	334	998.26	1597.76	-28103.5	1	28148.8	-86.7461	1.61959E-009	-2.2992	7
	54	340	998.26	1428.32	-28102.2	1	28138.5	-87.0904	1.05791E-008	-2.39908	7
	55	346	998.26	1508.08	-28175.7	1	28216.1	-86.9362	7.60578E-009	-2.49906	7
	56	351	998.26	1440.5	-27853.2	1	27890.4	-87.0394	9.46138E-009	-2.59901	7
	57	357	998.26	1321.64	-27976.4	1	28007.6	-87.2953	5.54157E-009	-2.699	7
	58	362	998.26	1460.94	-27805.3	1	27843.7	-86.9923	1.39849E-008	-2.79896	7
	59	368	998.26	1632.49	-27767.6	1	27815.6	-86.6354	1.33713E-009	-2.8989	7
	60	373	998.26	1681.39	-27713.3	1	27764.3	-86.5281	-6.56957E-010	-2.99889	7