File: OriginPro/EIS/C0_MS_pH7_04aa.DTA
EXPLAIN
TAG	MOTTSCHOTTKY
TITLE	LABEL	Mott-Schottky	Test &Identifier
DATE	LABEL	29-10-2009	Date
TIME	LABEL	21:13:29	Time
NOTES	NOTES	2	&Notes...
	Si/SiO2
	T=25.3oC
PSTAT	PSTAT	REF600-07089	Potentiostat
VINIT	POTEN	-3.00000E+000	F	Initial &Voltage (V)
VFINAL	POTEN	3.00000E+000	F	Final &Voltage (V)
VSTEP	QUANT	1.00000E-001	&Voltage Step (V)
FREQINIT	QUANT	5.00000E+002	Fre&quency (Hz)
VAC	QUANT	1.00000E+001	AC &Voltage (mV rms)
AREA	QUANT	1.00000E-002	&Area (cm^2)
CONDIT	TWOPARAM	T	2.00000E+001	-3.00000E+000	Conditionin&g	Time(s)	E(V)
DELAY	TWOPARAM	T	2.50000E-001	0.00000E+000	Init. De&lay	Time(s)	Stab.(mV/s)
SPEED	SELECTOR	1	&Optimize for:
ZGUESS	QUANT	1.00000E+002	E&stimated Z (ohms)
OCVCURVE	TABLE	1
	Pt	T	Vf	Vm	Ach	Over
	#	s	V vs. Ref.	V	V	bits
	0	0.258333	-2.05276E+000	0.00000E+000	1.25131E-004	.............
EOC	QUANT	-2.05276	Open Circuit (V)
PSTATMODEL	IQUANT	4	Pstat Model
PSTATSECTION	LABEL	REF600-07089	Pstat Section
PSTATSERIALNO	LABEL	07089	Pstat Serial Number
CTRLMODE	IQUANT	1	Control Mode
IESTAB	IQUANT	0	I/E Stability
CASPEED	IQUANT	2	Control Amp Speed
CONVENTION	IQUANT	1	Current Convention
ICHRANGE	IQUANT	2	Ich Range
ICHRANGEMODE	TOGGLE	F	Ich Auto Range
ICHOFFSETENABLE	TOGGLE	T	Ich Offset Enable
ICHOFFSET	QUANT	0	Ich Offset (V)
ICHFILTER	IQUANT	3	Ich Filter
VCHRANGE	IQUANT	2	Vch Range
VCHRANGEMODE	TOGGLE	F	Vch Auto Range
VCHOFFSETENABLE	TOGGLE	T	Vch Offset Enable
VCHOFFSET	QUANT	0	Vch Offset (V)
VCHFILTER	IQUANT	3	Vch Filter
ACHRANGE	IQUANT	2	Ach Range
ACHOFFSETENABLE	TOGGLE	F	Ach Offset Enable
ACHOFFSET	QUANT	0	Ach Offset (V)
ACHFILTER	IQUANT	2	Ach Filter
IERANGELOWERLIMIT	IQUANT	1	I/E Range Lower Limit
IERANGEMODE	TOGGLE	F	I/E AutoRange
IERANGE	IQUANT	10	I/E Range
POSFEEDENABLE	TOGGLE	F	Positive Feedback IR Comp
POSFEEDRESISTANCE	QUANT	0	Positive Feedback Resistance (ohm)
ACHSELECT	IQUANT	0	Ach Select
CABLEID	IQUANT	14	Cable ID
DCCALDATE	LABEL	14-4-2009	DC Calibration Date
ACCALDATE	LABEL	14-4-2009	AC Calibration Date
THERMOSELECT	IQUANT	0	Thermo Select
FRAMEWORKVERSION	QUANT	5.5	Framework Version
INSTRUMENTVERSION	LABEL	2.00	Instrument Version
ZCURVE	TABLE
	Pt	Time	Freq	Zreal	Zimag	Zsig	Zmod	Zphz	Idc	Vdc	IERange
	#	s	Hz	ohm	ohm	V	ohm	°	A	V	#
	0	10	495.793	2095.62	-58062.1	1	58099.9	-87.9329	9.97087E-010	-2.99891	6
	1	15	495.793	2379.8	-56208.9	1	56259.3	-87.5756	8.08228E-010	-2.89893	6
	2	24	495.793	2444.53	-55185	1	55239.1	-87.4636	8.55469E-010	-2.79901	6
	3	29	495.793	2482.84	-54923.8	1	54979.9	-87.4117	7.29921E-010	-2.69903	6
	4	35	495.793	2531.41	-54866.3	1	54924.7	-87.3584	6.22743E-010	-2.59906	6
	5	40	495.793	2590.17	-54860.2	1	54921.3	-87.2969	5.70337E-010	-2.49911	6
	6	46	495.793	2654.98	-54880.2	1	54944.4	-87.2303	4.95861E-010	-2.39914	6
	7	51	495.793	2742.94	-54977	1	55045.4	-87.1437	5.03533E-010	-2.29921	6
	8	57	495.793	2821.83	-55160.3	1	55232.5	-87.0715	5.04315E-010	-2.19922	6
	9	62	495.793	2908.41	-55414.7	1	55491	-86.9956	4.71538E-010	-2.09926	6
	10	68	495.793	2962.47	-55767.9	1	55846.5	-86.9592	5.22802E-010	-1.99927	6
	11	73	495.793	2939.14	-56191	1	56267.9	-87.0058	5.01423E-010	-1.89933	6
	12	79	495.793	2831.31	-56564.5	1	56635.3	-87.1345	4.22953E-010	-1.79934	6
	13	84	495.793	2685.04	-56735	1	56798.5	-87.2904	4.17108E-010	-1.6994	6
	14	90	495.793	2527.66	-56692.8	1	56749.1	-87.4471	4.39111E-010	-1.59944	6
	15	95	495.793	2367.4	-56449.6	1	56499.2	-87.5985	4.78599E-010	-1.49952	6
	16	101	495.793	2256.8	-56058.1	1	56103.5	-87.6946	4.33196E-010	-1.39956	6
	17	107	495.793	2200.46	-55570.6	1	55614.2	-87.7324	5.10613E-010	-1.29959	6
	18	112	495.793	2192.7	-55040.1	1	55083.8	-87.7187	4.01263E-010	-1.19965	6
	19	118	495.793	2184.84	-54466.2	1	54510	-87.7029	3.81051E-010	-1.0997	6
	20	123	495.793	2186.25	-53884.3	1	53928.6	-87.6766	4.07857E-010	-0.99965	6
	21	129	495.793	2193.32	-53260.7	1	53305.8	-87.6418	3.83886E-010	-0.899683	6
	22	134	495.793	2224.48	-52618.5	1	52665.5	-87.5792	3.97246E-010	-0.799707	6
	23	140	495.793	2280.34	-51922.9	1	51973	-87.4853	3.74347E-010	-0.699781	6
	24	145	495.793	2387.86	-51129.5	1	51185.2	-87.3261	4.14202E-010	-0.599796	6
	25	151	495.793	2485.77	-50198.3	1	50259.8	-87.1651	3.96433E-010	-0.499855	6
	26	157	495.793	2503.62	-49173.2	1	49236.9	-87.0853	4.51292E-010	-0.399884	6
	27	162	495.793	2422.97	-48163.5	1	48224.4	-87.12	5.42977E-009	-0.29994	7
	28	168	495.793	2275.18	-47287.4	1	47342.1	-87.2454	5.11386E-009	-0.199973	7
	29	174	495.793	2154.44	-46553	1	46602.9	-87.3503	5.8103E-009	-0.100035	7
	30	180	495.793	2080.74	-45863.3	1	45910.5	-87.4024	4.83274E-009	0.000204	7
	31	185	495.793	2025.58	-45216.6	1	45261.9	-87.435	5.10515E-009	0.100182	7
	32	191	495.793	2000.63	-44583.9	1	44628.7	-87.4307	4.88133E-009	0.200099	7
	33	196	495.793	1981.56	-43952.8	1	43997.4	-87.4186	5.21228E-009	0.300078	7
	34	202	495.793	1969.34	-43313.4	1	43358.1	-87.3967	5.5249E-009	0.400009	7
	35	207	495.793	1956.16	-42702.8	1	42747.6	-87.3772	5.04891E-009	0.499966	7
	36	212	495.793	1943.8	-42095.9	1	42140.7	-87.3562	5.47326E-009	0.599906	7
	37	218	495.793	1930.31	-41531.8	1	41576.6	-87.3389	4.83066E-009	0.699891	7
	38	223	495.793	1922.69	-40991.1	1	41036.2	-87.3145	4.76811E-009	0.799838	7
	39	229	495.793	1918.34	-40510.8	1	40556.2	-87.2888	5.17705E-009	0.899786	7
	40	235	495.793	1918.55	-40069.2	1	40115.1	-87.2587	5.04426E-009	0.99975	7
	41	241	495.793	1896.01	-39680.4	1	39725.6	-87.2644	5.72463E-009	1.09973	7
	42	247	495.793	1888.72	-39337.6	1	39382.9	-87.2512	5.92581E-009	1.19977	7
	43	253	495.793	1890.56	-39037	1	39082.7	-87.2273	5.66728E-009	1.29971	7
	44	259	495.793	1889.56	-38774.5	1	38820.5	-87.2101	6.41898E-009	1.39966	7
	45	264	495.793	1875.75	-38548.1	1	38593.7	-87.2142	5.72735E-009	1.49964	7
	46	269	495.793	1874.95	-38348.5	1	38394.3	-87.2009	5.36899E-009	1.5996	7
	47	275	495.793	1878.84	-38175.3	1	38221.5	-87.1824	5.20576E-009	1.69948	7
	48	280	495.793	1874.57	-38026.9	1	38073.1	-87.1778	5.49228E-009	1.79938	7
	49	285	495.793	1874.74	-37895.2	1	37941.6	-87.1678	5.67586E-009	1.89938	7
	50	291	495.793	1869.68	-37770.7	1	37817	-87.1661	5.67007E-009	1.99932	7
	51	297	495.793	1865.32	-37667.4	1	37713.5	-87.165	5.73827E-009	2.0993	7
	52	303	495.793	1860.47	-37574.2	1	37620.2	-87.1653	6.19182E-009	2.19926	7
	53	309	495.793	1862.42	-37491.4	1	37537.6	-87.1561	6.24338E-009	2.29925	7
	54	314	495.793	1856.73	-37413.3	1	37459.3	-87.1589	5.61167E-009	2.3992	7
	55	320	495.793	1862.02	-37351.4	1	37397.8	-87.1461	5.85008E-009	2.49917	7
	56	326	495.793	1859.19	-37283.7	1	37330.1	-87.1452	5.22489E-009	2.5991	7
	57	332	495.793	1860.72	-37230.9	1	37277.3	-87.1389	5.7988E-009	2.69908	7
	58	338	495.793	1852.53	-37179.5	1	37225.6	-87.1475	5.50082E-009	2.79903	7
	59	344	495.793	1849.74	-37132.1	1	37178.2	-87.1482	5.68076E-009	2.89898	7
	60	349	495.793	1856.96	-37085.1	1	37131.6	-87.1334	5.75348E-009	2.99892	7