File: OriginPro/EIS/C0_MS_pH7_05.DTA
EXPLAIN
TAG	MOTTSCHOTTKY
TITLE	LABEL	Mott-Schottky	Test &Identifier
DATE	LABEL	29-10-2009	Date
TIME	LABEL	21:20:13	Time
NOTES	NOTES	2	&Notes...
	Si/SiO2
	T=25.3oC
PSTAT	PSTAT	REF600-07089	Potentiostat
VINIT	POTEN	3.00000E+000	F	Initial &Voltage (V)
VFINAL	POTEN	-3.00000E+000	F	Final &Voltage (V)
VSTEP	QUANT	1.00000E-001	&Voltage Step (V)
FREQINIT	QUANT	5.00000E+003	Fre&quency (Hz)
VAC	QUANT	1.00000E+001	AC &Voltage (mV rms)
AREA	QUANT	1.00000E-002	&Area (cm^2)
CONDIT	TWOPARAM	T	2.00000E+001	3.00000E+000	Conditionin&g	Time(s)	E(V)
DELAY	TWOPARAM	T	2.50000E-001	0.00000E+000	Init. De&lay	Time(s)	Stab.(mV/s)
SPEED	SELECTOR	1	&Optimize for:
ZGUESS	QUANT	1.00000E+002	E&stimated Z (ohms)
OCVCURVE	TABLE	1
	Pt	T	Vf	Vm	Ach	Over
	#	s	V vs. Ref.	V	V	bits
	0	0.258333	3.67901E+000	0.00000E+000	1.40864E-004	.............
EOC	QUANT	3.67901	Open Circuit (V)
PSTATMODEL	IQUANT	4	Pstat Model
PSTATSECTION	LABEL	REF600-07089	Pstat Section
PSTATSERIALNO	LABEL	07089	Pstat Serial Number
CTRLMODE	IQUANT	1	Control Mode
IESTAB	IQUANT	0	I/E Stability
CASPEED	IQUANT	2	Control Amp Speed
CONVENTION	IQUANT	1	Current Convention
ICHRANGE	IQUANT	2	Ich Range
ICHRANGEMODE	TOGGLE	F	Ich Auto Range
ICHOFFSETENABLE	TOGGLE	T	Ich Offset Enable
ICHOFFSET	QUANT	0	Ich Offset (V)
ICHFILTER	IQUANT	3	Ich Filter
VCHRANGE	IQUANT	2	Vch Range
VCHRANGEMODE	TOGGLE	F	Vch Auto Range
VCHOFFSETENABLE	TOGGLE	T	Vch Offset Enable
VCHOFFSET	QUANT	0	Vch Offset (V)
VCHFILTER	IQUANT	3	Vch Filter
ACHRANGE	IQUANT	2	Ach Range
ACHOFFSETENABLE	TOGGLE	F	Ach Offset Enable
ACHOFFSET	QUANT	0	Ach Offset (V)
ACHFILTER	IQUANT	2	Ach Filter
IERANGELOWERLIMIT	IQUANT	1	I/E Range Lower Limit
IERANGEMODE	TOGGLE	F	I/E AutoRange
IERANGE	IQUANT	10	I/E Range
POSFEEDENABLE	TOGGLE	F	Positive Feedback IR Comp
POSFEEDRESISTANCE	QUANT	0	Positive Feedback Resistance (ohm)
ACHSELECT	IQUANT	0	Ach Select
CABLEID	IQUANT	14	Cable ID
DCCALDATE	LABEL	14-4-2009	DC Calibration Date
ACCALDATE	LABEL	14-4-2009	AC Calibration Date
THERMOSELECT	IQUANT	0	Thermo Select
FRAMEWORKVERSION	QUANT	5.5	Framework Version
INSTRUMENTVERSION	LABEL	2.00	Instrument Version
ZCURVE	TABLE
	Pt	Time	Freq	Zreal	Zimag	Zsig	Zmod	Zphz	Idc	Vdc	IERange
	#	s	Hz	ohm	ohm	V	ohm	°	A	V	#
	0	14	5015.63	953.94	-4062.21	1	4172.72	-76.7845	1.19111E-007	2.99895	8
	1	20	5015.63	952.25	-4055.24	1	4165.54	-76.7852	6.07924E-008	2.89896	8
	2	26	5015.63	955.12	-4063.78	1	4174.52	-76.7737	5.29553E-008	2.799	8
	3	32	5015.63	947.91	-4074.35	1	4183.16	-76.9029	7.86225E-008	2.69909	8
	4	38	5015.63	950.26	-4075.35	1	4184.68	-76.8747	5.5347E-008	2.59908	8
	5	44	5015.63	948.657	-4072.95	1	4181.97	-76.8886	8.35614E-008	2.49918	8
	6	50	5015.63	943.271	-4083.27	1	4190.81	-76.9924	6.0936E-008	2.3992	8
	7	56	5015.63	949.145	-4090.96	1	4199.62	-76.9379	4.96095E-008	2.29922	8
	8	62	5015.63	950.36	-4100.29	1	4208.99	-76.9505	5.18965E-008	2.19924	8
	9	68	5015.63	944.094	-4115.46	1	4222.36	-77.0798	7.36081E-008	2.09931	8
	10	74	5015.63	946.361	-4129.37	1	4236.43	-77.092	6.07913E-008	1.99933	8
	11	80	5015.63	956.53	-4132.97	1	4242.22	-76.969	6.92233E-008	1.89941	8
	12	86	5015.63	951.01	-4144.47	1	4252.18	-77.0764	7.8698E-008	1.7994	8
	13	91	5015.63	952.29	-4162.18	1	4269.73	-77.1128	4.98069E-008	1.69947	8
	14	97	5015.63	954.5	-4181.91	1	4289.46	-77.1428	4.26413E-008	1.59957	8
	15	103	5015.63	957.84	-4204.57	1	4312.29	-77.1664	3.74913E-008	1.49962	8
	16	109	5015.63	953.49	-4215.86	1	4322.34	-77.256	3.59891E-008	1.39963	8
	17	115	5015.63	948.794	-4247.15	1	4351.84	-77.4071	3.86832E-008	1.29968	8
	18	121	5015.63	947.716	-4279.45	1	4383.13	-77.5129	5.47215E-008	1.19976	8
	19	127	5015.63	954.79	-4315.48	1	4419.84	-77.5244	4.38222E-008	1.0997	8
	20	133	5015.63	953.53	-4354.59	1	4457.77	-77.6488	6.07351E-008	0.99974	8
	21	139	5015.63	957.11	-4399.81	1	4502.71	-77.7274	4.61051E-008	0.899769	8
	22	145	5015.63	958.92	-4451.69	1	4553.79	-77.8438	8.2434E-008	0.799869	8
	23	151	5015.63	955.91	-4500.41	1	4600.81	-78.0083	7.27238E-008	0.699899	8
	24	157	5015.63	955.97	-4563.78	1	4662.83	-78.1694	4.26041E-008	0.599887	8
	25	162	5015.63	960.67	-4623.04	1	4721.8	-78.2609	8.66547E-008	0.5	8
	26	168	5015.63	958.98	-4686.33	1	4783.44	-78.435	7.9736E-008	0.400025	8
	27	175	5015.63	971.6	-4753.2	1	4851.49	-78.4473	5.00401E-008	0.300064	8
	28	181	5015.63	972.9	-4818.33	1	4915.57	-78.5845	7.69917E-008	0.200106	8
	29	187	5015.63	972.63	-4889.99	1	4985.78	-78.7505	4.96915E-008	0.100162	8
	30	193	5015.63	989.57	-4962.9	1	5060.6	-78.7235	7.80737E-008	0.000224	8
	31	199	5015.63	1003.14	-5054.5	1	5153.08	-78.7746	6.89376E-009	-0.100036	7
	32	205	5015.63	1014.33	-5151.12	1	5250.03	-78.8602	6.69787E-009	-0.199984	7
	33	210	5015.63	1010.08	-5254.81	1	5351.01	-79.1193	6.03552E-009	-0.299954	7
	34	216	5015.63	1000.17	-5350.8	1	5443.48	-79.4124	1.09136E-008	-0.399885	7
	35	222	5015.63	990.82	-5433.75	1	5523.35	-79.6659	1.22049E-008	-0.499849	7
	36	227	5015.63	987.15	-5507.55	1	5595.32	-79.8384	2.9261E-009	-0.599809	7
	37	233	5015.63	979.16	-5580.99	1	5666.23	-80.049	1.28887E-008	-0.699763	7
	38	239	5015.63	976.04	-5641.65	1	5725.45	-80.1847	2.37622E-010	-0.799716	7
	39	244	5015.63	978.7	-5702.42	1	5785.8	-80.2613	1.21584E-008	-0.899668	7
	40	250	5015.63	973	-5764.47	1	5846.01	-80.4192	2.81108E-009	-0.99965	7
	41	256	5015.63	976.26	-5823.43	1	5904.69	-80.4833	1.00929E-008	-1.09968	7
	42	262	5015.63	976.65	-5887.84	1	5968.3	-80.5818	4.71314E-009	-1.19966	7
	43	267	5015.63	984.24	-5942	1	6022.96	-80.5948	8.58805E-009	-1.29958	7
	44	273	5015.63	980.86	-5990.72	1	6070.48	-80.7015	5.12837E-009	-1.39956	7
	45	279	5015.63	990.58	-6041.99	1	6122.65	-80.6892	6.43415E-009	-1.49952	7
	46	284	5015.63	999.2	-6078.81	1	6160.38	-80.6655	4.21651E-009	-1.59945	7
	47	290	5015.63	1010.94	-6108.17	1	6191.26	-80.6023	1.23658E-008	-1.69937	7
	48	297	5015.63	1022.82	-6121.8	1	6206.66	-80.5147	9.7446E-009	-1.79933	7
	49	302	5015.63	1023.04	-6128.19	1	6213	-80.5224	7.62761E-009	-1.89931	7
	50	308	5015.63	1019.79	-6125.78	1	6210.09	-80.5484	1.25261E-008	-1.99924	7
	51	313	5015.63	1026.35	-6119.44	1	6204.91	-80.479	8.93286E-009	-2.09923	7
	52	318	5015.63	1023.03	-6109.31	1	6194.38	-80.4938	4.99497E-009	-2.19921	7
	53	325	5015.63	1014.47	-6094.16	1	6178.02	-80.5489	1.19357E-008	-2.29917	7
	54	330	5015.63	1018.82	-6093.16	1	6177.75	-80.5075	7.31991E-009	-2.39912	7
	55	335	5015.63	1016.63	-6080.28	1	6164.69	-80.5079	1.01518E-008	-2.49908	7
	56	341	5015.63	1011.07	-6072.71	1	6156.31	-80.5473	7.8149E-009	-2.59905	7
	57	346	5015.63	1017.04	-6071.03	1	6155.63	-80.4899	1.09441E-008	-2.699	7
	58	351	5015.63	1017.36	-6060.17	1	6144.97	-80.4703	6.73371E-010	-2.799	7
	59	357	5015.63	1012.06	-6057.76	1	6141.72	-80.5153	8.35245E-009	-2.89889	7
	60	362	5015.63	1013.56	-6045.23	1	6129.61	-80.4822	2.18272E-009	-2.9989	7