File: OriginPro/EIS/C0_MS_pH4_04a.DTA
EXPLAIN
TAG	MOTTSCHOTTKY
TITLE	LABEL	Mott-Schottky	Test &Identifier
DATE	LABEL	29-10-2009	Date
TIME	LABEL	22:25:03	Time
NOTES	NOTES	2	&Notes...
	Si/SiO2
	T=25.3oC
PSTAT	PSTAT	REF600-07089	Potentiostat
VINIT	POTEN	3.00000E+000	F	Initial &Voltage (V)
VFINAL	POTEN	-3.00000E+000	F	Final &Voltage (V)
VSTEP	QUANT	1.00000E-001	&Voltage Step (V)
FREQINIT	QUANT	5.00000E+002	Fre&quency (Hz)
VAC	QUANT	1.00000E+001	AC &Voltage (mV rms)
AREA	QUANT	1.00000E-002	&Area (cm^2)
CONDIT	TWOPARAM	T	2.00000E+001	3.00000E+000	Conditionin&g	Time(s)	E(V)
DELAY	TWOPARAM	T	2.50000E-001	0.00000E+000	Init. De&lay	Time(s)	Stab.(mV/s)
SPEED	SELECTOR	1	&Optimize for:
ZGUESS	QUANT	1.00000E+002	E&stimated Z (ohms)
OCVCURVE	TABLE	1
	Pt	T	Vf	Vm	Ach	Over
	#	s	V vs. Ref.	V	V	bits
	0	0.258333	3.65892E+000	0.00000E+000	1.80797E-004	.............
EOC	QUANT	3.65892	Open Circuit (V)
PSTATMODEL	IQUANT	4	Pstat Model
PSTATSECTION	LABEL	REF600-07089	Pstat Section
PSTATSERIALNO	LABEL	07089	Pstat Serial Number
CTRLMODE	IQUANT	1	Control Mode
IESTAB	IQUANT	0	I/E Stability
CASPEED	IQUANT	2	Control Amp Speed
CONVENTION	IQUANT	1	Current Convention
ICHRANGE	IQUANT	2	Ich Range
ICHRANGEMODE	TOGGLE	F	Ich Auto Range
ICHOFFSETENABLE	TOGGLE	T	Ich Offset Enable
ICHOFFSET	QUANT	0	Ich Offset (V)
ICHFILTER	IQUANT	3	Ich Filter
VCHRANGE	IQUANT	2	Vch Range
VCHRANGEMODE	TOGGLE	F	Vch Auto Range
VCHOFFSETENABLE	TOGGLE	T	Vch Offset Enable
VCHOFFSET	QUANT	0	Vch Offset (V)
VCHFILTER	IQUANT	3	Vch Filter
ACHRANGE	IQUANT	2	Ach Range
ACHOFFSETENABLE	TOGGLE	F	Ach Offset Enable
ACHOFFSET	QUANT	0	Ach Offset (V)
ACHFILTER	IQUANT	2	Ach Filter
IERANGELOWERLIMIT	IQUANT	1	I/E Range Lower Limit
IERANGEMODE	TOGGLE	F	I/E AutoRange
IERANGE	IQUANT	10	I/E Range
POSFEEDENABLE	TOGGLE	F	Positive Feedback IR Comp
POSFEEDRESISTANCE	QUANT	0	Positive Feedback Resistance (ohm)
ACHSELECT	IQUANT	0	Ach Select
CABLEID	IQUANT	14	Cable ID
DCCALDATE	LABEL	14-4-2009	DC Calibration Date
ACCALDATE	LABEL	14-4-2009	AC Calibration Date
THERMOSELECT	IQUANT	0	Thermo Select
FRAMEWORKVERSION	QUANT	5.5	Framework Version
INSTRUMENTVERSION	LABEL	2.00	Instrument Version
ZCURVE	TABLE
	Pt	Time	Freq	Zreal	Zimag	Zsig	Zmod	Zphz	Idc	Vdc	IERange
	#	s	Hz	ohm	ohm	V	ohm	°	A	V	#
	0	10	495.793	1377.7	-37865.5	1	37890.6	-87.9163	1.08415E-008	2.9989	7
	1	15	495.793	1376.41	-37917.1	1	37942.1	-87.9211	8.50257E-009	2.89897	7
	2	21	495.793	1381.54	-37964.3	1	37989.5	-87.9159	7.05773E-009	2.79902	7
	3	26	495.793	1382.09	-38024.7	1	38049.8	-87.9184	6.73283E-009	2.69906	7
	4	32	495.793	1386.5	-38087.5	1	38112.7	-87.9152	6.41095E-009	2.59908	7
	5	37	495.793	1387.08	-38152.4	1	38177.6	-87.9179	5.82952E-009	2.49916	7
	6	44	495.793	1379.53	-38222.1	1	38247	-87.933	5.51353E-009	2.39919	7
	7	50	495.793	1387.02	-38315.1	1	38340.2	-87.9268	5.90575E-009	2.29924	7
	8	56	495.793	1385.27	-38405.6	1	38430.6	-87.9343	5.16893E-009	2.19926	7
	9	62	495.793	1380.25	-38511.9	1	38536.6	-87.9474	4.74324E-009	2.09929	7
	10	68	495.793	1386.43	-38635.6	1	38660.4	-87.9448	5.74372E-009	1.99931	7
	11	74	495.793	1386.07	-38764.4	1	38789.1	-87.9522	5.88015E-009	1.89938	7
	12	80	495.793	1388.15	-38917.2	1	38941.9	-87.9572	5.53154E-009	1.79938	7
	13	86	495.793	1391.45	-39097.2	1	39122	-87.9617	5.43403E-009	1.69947	7
	14	92	495.793	1397.83	-39294.7	1	39319.5	-87.9627	5.43975E-009	1.59959	7
	15	97	495.793	1398.15	-39523.8	1	39548.5	-87.974	5.81863E-009	1.49963	7
	16	103	495.793	1397.06	-39786.3	1	39810.9	-87.9889	5.83342E-009	1.39965	7
	17	109	495.793	1398.75	-40087.6	1	40112	-88.0016	6.0451E-009	1.2997	7
	18	115	495.793	1406.35	-40433.5	1	40458	-88.0079	5.71575E-009	1.19976	7
	19	121	495.793	1405.66	-40814.5	1	40838.7	-88.0275	4.90073E-009	1.09972	7
	20	127	495.793	1413.8	-41266.2	1	41290.4	-88.0378	4.81554E-009	0.99973	7
	21	133	495.793	1415.4	-41762.1	1	41786.1	-88.0589	5.26499E-009	0.899791	7
	22	139	495.793	1415.24	-42300.7	1	42324.4	-88.0838	5.50107E-009	0.799842	7
	23	145	495.793	1430.64	-42879.9	1	42903.7	-88.0891	5.5174E-009	0.699886	7
	24	151	495.793	1439.23	-43485.8	1	43509.6	-88.1044	5.52798E-009	0.599909	7
	25	157	495.793	1450.17	-44129.2	1	44153.1	-88.1178	5.00141E-009	0.499979	7
	26	163	495.793	1455.19	-44774.6	1	44798.3	-88.1385	6.06908E-009	0.400013	7
	27	169	495.793	1460.18	-45423.7	1	45447.2	-88.1588	5.78595E-009	0.300081	7
	28	175	495.793	1481.93	-46071.6	1	46095.5	-88.1577	5.43027E-009	0.200098	7
	29	181	495.793	1524.62	-46733.5	1	46758.3	-88.1315	5.72844E-009	0.100184	7
	30	187	495.793	1585.51	-47417.2	1	47443.7	-88.0849	5.19752E-009	0.00021	7
	31	193	495.793	1706.87	-48179.2	1	48209.4	-87.971	5.8158E-009	-0.100024	7
	32	199	495.793	1842.44	-49051.7	1	49086.3	-87.8489	6.26089E-009	-0.199965	7
	33	205	495.793	1954.99	-50048.6	1	50086.8	-87.7631	6.29942E-009	-0.299948	7
	34	211	495.793	1929.35	-51126.4	1	51162.8	-87.8389	6.03819E-010	-0.399888	6
	35	216	495.793	1826.65	-52101.6	1	52133.6	-87.9921	6.16696E-010	-0.49986	6
	36	222	495.793	1712.96	-52947.8	1	52975.5	-88.147	5.64854E-010	-0.599792	6
	37	227	495.793	1634.82	-53677	1	53701.9	-88.2555	6.10625E-010	-0.699772	6
	38	233	495.793	1593.82	-54340.9	1	54364.3	-88.32	5.5468E-010	-0.799695	6
	39	238	495.793	1577.42	-54985.2	1	55007.8	-88.3567	5.9267E-010	-0.899677	6
	40	244	495.793	1574.98	-55599.7	1	55622	-88.3774	5.29481E-010	-0.99964	6
	41	249	495.793	1581.66	-56187	1	56209.2	-88.3876	4.6838E-010	-1.09969	6
	42	255	495.793	1576.25	-56747.6	1	56769.5	-88.4089	5.36606E-010	-1.19965	6
	43	260	495.793	1600.96	-57255	1	57277.4	-88.3983	5.22645E-010	-1.29958	6
	44	266	495.793	1663.31	-57687.6	1	57711.6	-88.3484	5.53705E-010	-1.39956	6
	45	271	495.793	1750.27	-58004.7	1	58031.1	-88.2716	5.27943E-010	-1.49952	6
	46	277	495.793	1784.34	-58209.4	1	58236.8	-88.2442	4.45238E-010	-1.59944	6
	47	282	495.793	1766.43	-58333.8	1	58360.5	-88.2655	4.45237E-010	-1.69938	6
	48	289	495.793	1729.1	-58387.1	1	58412.7	-88.3037	3.6589E-010	-1.79933	6
	49	294	495.793	1706.53	-58342.1	1	58367	-88.3245	4.91743E-010	-1.89932	6
	50	299	495.793	1662.23	-58247.9	1	58271.6	-88.3654	4.22789E-010	-1.99926	6
	51	304	495.793	1629.94	-58129.6	1	58152.5	-88.3939	4.18648E-010	-2.09925	6
	52	310	495.793	1599.91	-58032.8	1	58054.9	-88.4208	3.5642E-010	-2.1992	6
	53	315	495.793	1571.47	-57952.5	1	57973.8	-88.4467	3.11728E-010	-2.29918	6
	54	320	495.793	1551.34	-57878.9	1	57899.7	-88.4647	3.56951E-010	-2.39913	6
	55	326	495.793	1537.12	-57786.1	1	57806.5	-88.4763	3.04249E-010	-2.49909	6
	56	331	495.793	1538.83	-57703.3	1	57723.9	-88.4724	3.26807E-010	-2.59904	6
	57	336	495.793	1544.75	-57607.6	1	57628.3	-88.464	2.50993E-010	-2.69901	6
	58	341	495.793	1574.86	-57503.6	1	57525.2	-88.4312	3.36285E-010	-2.79899	6
	59	347	495.793	1643.05	-57369.6	1	57393.1	-88.3595	2.92905E-010	-2.89889	6
	60	352	495.793	1734.7	-57169.1	1	57195.5	-88.262	3.02133E-010	-2.99887	6