File: OriginPro/EIS/C0_MS_pH4_04aa.DTA
EXPLAIN
TAG	MOTTSCHOTTKY
TITLE	LABEL	Mott-Schottky	Test &Identifier
DATE	LABEL	29-10-2009	Date
TIME	LABEL	22:31:49	Time
NOTES	NOTES	2	&Notes...
	Si/SiO2
	T=25.3oC
PSTAT	PSTAT	REF600-07089	Potentiostat
VINIT	POTEN	-3.00000E+000	F	Initial &Voltage (V)
VFINAL	POTEN	3.00000E+000	F	Final &Voltage (V)
VSTEP	QUANT	1.00000E-001	&Voltage Step (V)
FREQINIT	QUANT	5.00000E+002	Fre&quency (Hz)
VAC	QUANT	1.00000E+001	AC &Voltage (mV rms)
AREA	QUANT	1.00000E-002	&Area (cm^2)
CONDIT	TWOPARAM	T	2.00000E+001	-3.00000E+000	Conditionin&g	Time(s)	E(V)
DELAY	TWOPARAM	T	2.50000E-001	0.00000E+000	Init. De&lay	Time(s)	Stab.(mV/s)
SPEED	SELECTOR	1	&Optimize for:
ZGUESS	QUANT	1.00000E+002	E&stimated Z (ohms)
OCVCURVE	TABLE	1
	Pt	T	Vf	Vm	Ach	Over
	#	s	V vs. Ref.	V	V	bits
	0	0.258333	-2.04621E+000	0.00000E+000	2.07829E-004	.............
EOC	QUANT	-2.04621	Open Circuit (V)
PSTATMODEL	IQUANT	4	Pstat Model
PSTATSECTION	LABEL	REF600-07089	Pstat Section
PSTATSERIALNO	LABEL	07089	Pstat Serial Number
CTRLMODE	IQUANT	1	Control Mode
IESTAB	IQUANT	0	I/E Stability
CASPEED	IQUANT	2	Control Amp Speed
CONVENTION	IQUANT	1	Current Convention
ICHRANGE	IQUANT	2	Ich Range
ICHRANGEMODE	TOGGLE	F	Ich Auto Range
ICHOFFSETENABLE	TOGGLE	T	Ich Offset Enable
ICHOFFSET	QUANT	0	Ich Offset (V)
ICHFILTER	IQUANT	3	Ich Filter
VCHRANGE	IQUANT	2	Vch Range
VCHRANGEMODE	TOGGLE	F	Vch Auto Range
VCHOFFSETENABLE	TOGGLE	T	Vch Offset Enable
VCHOFFSET	QUANT	0	Vch Offset (V)
VCHFILTER	IQUANT	3	Vch Filter
ACHRANGE	IQUANT	2	Ach Range
ACHOFFSETENABLE	TOGGLE	F	Ach Offset Enable
ACHOFFSET	QUANT	0	Ach Offset (V)
ACHFILTER	IQUANT	2	Ach Filter
IERANGELOWERLIMIT	IQUANT	1	I/E Range Lower Limit
IERANGEMODE	TOGGLE	F	I/E AutoRange
IERANGE	IQUANT	10	I/E Range
POSFEEDENABLE	TOGGLE	F	Positive Feedback IR Comp
POSFEEDRESISTANCE	QUANT	0	Positive Feedback Resistance (ohm)
ACHSELECT	IQUANT	0	Ach Select
CABLEID	IQUANT	14	Cable ID
DCCALDATE	LABEL	14-4-2009	DC Calibration Date
ACCALDATE	LABEL	14-4-2009	AC Calibration Date
THERMOSELECT	IQUANT	0	Thermo Select
FRAMEWORKVERSION	QUANT	5.5	Framework Version
INSTRUMENTVERSION	LABEL	2.00	Instrument Version
ZCURVE	TABLE
	Pt	Time	Freq	Zreal	Zimag	Zsig	Zmod	Zphz	Idc	Vdc	IERange
	#	s	Hz	ohm	ohm	V	ohm	°	A	V	#
	0	10	495.793	1986.04	-57769.1	1	57803.2	-88.031	9.05138E-010	-2.9989	6
	1	15	495.793	1971.57	-56065.4	1	56100	-87.986	7.61371E-010	-2.89891	6
	2	24	495.793	1988.83	-55266.6	1	55302.4	-87.939	7.24725E-010	-2.79899	6
	3	29	495.793	2037.89	-55073.8	1	55111.5	-87.8809	6.65529E-010	-2.69901	6
	4	35	495.793	2096.21	-55054.8	1	55094.7	-87.8195	5.78549E-010	-2.59904	6
	5	40	495.793	2162.7	-55070.3	1	55112.8	-87.7511	4.98884E-010	-2.49908	6
	6	45	495.793	2239.04	-55138.1	1	55183.5	-87.6746	4.90758E-010	-2.39912	6
	7	51	495.793	2330.16	-55270.1	1	55319.2	-87.5859	3.90831E-010	-2.29919	6
	8	56	495.793	2425.83	-55462.8	1	55515.8	-87.4956	4.20959E-010	-2.19919	6
	9	61	495.793	2533.04	-55758.8	1	55816.3	-87.3989	4.08834E-010	-2.09923	6
	10	66	495.793	2611.79	-56208.8	1	56269.4	-87.3396	4.10514E-010	-1.99925	6
	11	72	495.793	2631.29	-56855.1	1	56916	-87.3502	4.1567E-010	-1.8993	6
	12	77	495.793	2517.45	-57515.3	1	57570.4	-87.4938	4.04865E-010	-1.79931	6
	13	83	495.793	2280.46	-58011.4	1	58056.2	-87.7488	3.86658E-010	-1.69937	6
	14	88	495.793	2030.99	-58185	1	58220.4	-88.0009	3.55139E-010	-1.59943	6
	15	94	495.793	1790.98	-58044	1	58071.7	-88.2327	3.59695E-010	-1.49951	6
	16	100	495.793	1649.98	-57685.7	1	57709.3	-88.3616	3.70367E-010	-1.39954	6
	17	105	495.793	1593.82	-57240.4	1	57262.6	-88.405	4.33133E-010	-1.29957	6
	18	111	495.793	1577.06	-56735.8	1	56757.7	-88.4078	4.25522E-010	-1.19963	6
	19	116	495.793	1568.21	-56189.2	1	56211.1	-88.4013	4.0531E-010	-1.09968	6
	20	122	495.793	1564.31	-55594.8	1	55616.8	-88.3883	4.21585E-010	-0.99963	6
	21	128	495.793	1567.77	-54984.7	1	55007	-88.3668	4.14287E-010	-0.899675	6
	22	133	495.793	1586.07	-54346.5	1	54369.6	-88.3283	4.55987E-010	-0.799688	6
	23	139	495.793	1618.42	-53673.9	1	53698.3	-88.2729	4.3476E-010	-0.69976	6
	24	144	495.793	1701.16	-52943.4	1	52970.7	-88.1596	4.36032E-010	-0.599778	6
	25	150	495.793	1819.46	-52098.3	1	52130.1	-87.9998	4.16498E-010	-0.499847	6
	26	156	495.793	1919.76	-51124	1	51160	-87.8495	3.45801E-010	-0.39987	6
	27	161	495.793	1917.54	-50062.8	1	50099.5	-87.8065	4.49643E-010	-0.299932	6
	28	167	495.793	1822.01	-49056.1	1	49089.9	-87.8729	4.72335E-010	-0.199961	6
	29	172	495.793	1684.72	-48171.1	1	48200.5	-87.997	5.40511E-009	-0.100018	7
	30	178	495.793	1578.85	-47412.8	1	47439.1	-88.0928	5.05139E-009	0.000226	7
	31	184	495.793	1508.43	-46724	1	46748.4	-88.1509	4.38144E-009	0.100189	7
	32	190	495.793	1472.73	-46058.7	1	46082.3	-88.1686	4.541E-009	0.20011	7
	33	195	495.793	1453.84	-45413.3	1	45436.6	-88.1664	3.84996E-009	0.300086	7
	34	200	495.793	1427.03	-44768.3	1	44791.1	-88.1743	4.46353E-009	0.400031	7
	35	206	495.793	1435.38	-44120.2	1	44143.6	-88.1366	3.80968E-009	0.499974	7
	36	211	495.793	1426.99	-43484.9	1	43508.3	-88.1205	4.2034E-009	0.599919	7
	37	217	495.793	1417.27	-42875.6	1	42899.1	-88.1068	3.92748E-009	0.699888	7
	38	222	495.793	1413.29	-42293.3	1	42316.9	-88.0861	4.32323E-009	0.79985	7
	39	228	495.793	1409.58	-41756.6	1	41780.4	-88.0666	4.07553E-009	0.899792	7
	40	234	495.793	1400.03	-41254.8	1	41278.6	-88.0564	4.23673E-009	0.99975	7
	41	239	495.793	1394.44	-40819.6	1	40843.4	-88.0435	5.11306E-009	1.09972	7
	42	244	495.793	1392.06	-40424.1	1	40448.1	-88.0277	5.04393E-009	1.19976	7
	43	250	495.793	1387.94	-40080.1	1	40104.1	-88.0167	4.46532E-009	1.29969	7
	44	255	495.793	1385.51	-39776.4	1	39800.6	-88.0051	4.41765E-009	1.39966	7
	45	260	495.793	1386.93	-39519	1	39543.3	-87.99	4.47567E-009	1.49963	7
	46	266	495.793	1381.53	-39296.8	1	39321.1	-87.9865	4.59687E-009	1.59958	7
	47	271	495.793	1375.68	-39094.4	1	39118.6	-87.9847	5.11794E-009	1.69947	7
	48	277	495.793	1377.41	-38918.9	1	38943.3	-87.973	4.57485E-009	1.79937	7
	49	283	495.793	1371.03	-38762.3	1	38786.5	-87.9743	4.6769E-009	1.89938	7
	50	288	495.793	1379.32	-38633.4	1	38658	-87.9553	4.2538E-009	1.99932	7
	51	294	495.793	1369.53	-38519	1	38543.3	-87.9637	4.472E-009	2.09929	7
	52	299	495.793	1372.52	-38403.5	1	38428	-87.9531	4.74533E-009	2.19924	7
	53	304	495.793	1370.45	-38315.1	1	38339.6	-87.9515	4.74099E-009	2.29924	7
	54	310	495.793	1373.82	-38230.3	1	38255	-87.9419	4.88723E-009	2.39919	7
	55	316	495.793	1364.88	-38153.6	1	38178	-87.9512	4.89963E-009	2.49914	7
	56	321	495.793	1368.75	-38084.9	1	38109.5	-87.9417	5.53473E-009	2.59908	7
	57	326	495.793	1363.69	-38026	1	38050.5	-87.9461	5.35959E-009	2.69907	7
	58	332	495.793	1362.46	-37964.4	1	37988.9	-87.9447	5.34314E-009	2.79902	7
	59	338	495.793	1370.65	-37916.9	1	37941.7	-87.9297	5.59891E-009	2.89896	7
	60	344	495.793	1371.96	-37869.1	1	37894	-87.9251	5.56343E-009	2.9989	7