File: OriginPro/EIS/C0_MS_pH4_04.DTA
EXPLAIN
TAG	MOTTSCHOTTKY
TITLE	LABEL	Mott-Schottky	Test &Identifier
DATE	LABEL	29-10-2009	Date
TIME	LABEL	22:18:04	Time
NOTES	NOTES	2	&Notes...
	Si/SiO2
	T=25.3oC
PSTAT	PSTAT	REF600-07089	Potentiostat
VINIT	POTEN	3.00000E+000	F	Initial &Voltage (V)
VFINAL	POTEN	-3.00000E+000	F	Final &Voltage (V)
VSTEP	QUANT	1.00000E-001	&Voltage Step (V)
FREQINIT	QUANT	5.00000E+002	Fre&quency (Hz)
VAC	QUANT	1.00000E+001	AC &Voltage (mV rms)
AREA	QUANT	1.00000E-002	&Area (cm^2)
CONDIT	TWOPARAM	T	2.00000E+001	3.00000E+000	Conditionin&g	Time(s)	E(V)
DELAY	TWOPARAM	T	2.50000E-001	0.00000E+000	Init. De&lay	Time(s)	Stab.(mV/s)
SPEED	SELECTOR	1	&Optimize for:
ZGUESS	QUANT	1.00000E+002	E&stimated Z (ohms)
OCVCURVE	TABLE	1
	Pt	T	Vf	Vm	Ach	Over
	#	s	V vs. Ref.	V	V	bits
	0	0.258333	3.67193E+000	0.00000E+000	-3.55934E-004	.............
EOC	QUANT	3.67193	Open Circuit (V)
PSTATMODEL	IQUANT	4	Pstat Model
PSTATSECTION	LABEL	REF600-07089	Pstat Section
PSTATSERIALNO	LABEL	07089	Pstat Serial Number
CTRLMODE	IQUANT	1	Control Mode
IESTAB	IQUANT	0	I/E Stability
CASPEED	IQUANT	2	Control Amp Speed
CONVENTION	IQUANT	1	Current Convention
ICHRANGE	IQUANT	2	Ich Range
ICHRANGEMODE	TOGGLE	F	Ich Auto Range
ICHOFFSETENABLE	TOGGLE	T	Ich Offset Enable
ICHOFFSET	QUANT	0	Ich Offset (V)
ICHFILTER	IQUANT	3	Ich Filter
VCHRANGE	IQUANT	2	Vch Range
VCHRANGEMODE	TOGGLE	F	Vch Auto Range
VCHOFFSETENABLE	TOGGLE	T	Vch Offset Enable
VCHOFFSET	QUANT	0	Vch Offset (V)
VCHFILTER	IQUANT	3	Vch Filter
ACHRANGE	IQUANT	2	Ach Range
ACHOFFSETENABLE	TOGGLE	F	Ach Offset Enable
ACHOFFSET	QUANT	0	Ach Offset (V)
ACHFILTER	IQUANT	1	Ach Filter
IERANGELOWERLIMIT	IQUANT	1	I/E Range Lower Limit
IERANGEMODE	TOGGLE	F	I/E AutoRange
IERANGE	IQUANT	10	I/E Range
POSFEEDENABLE	TOGGLE	F	Positive Feedback IR Comp
POSFEEDRESISTANCE	QUANT	0	Positive Feedback Resistance (ohm)
ACHSELECT	IQUANT	0	Ach Select
CABLEID	IQUANT	14	Cable ID
DCCALDATE	LABEL	14-4-2009	DC Calibration Date
ACCALDATE	LABEL	14-4-2009	AC Calibration Date
THERMOSELECT	IQUANT	0	Thermo Select
FRAMEWORKVERSION	QUANT	5.5	Framework Version
INSTRUMENTVERSION	LABEL	2.00	Instrument Version
ZCURVE	TABLE
	Pt	Time	Freq	Zreal	Zimag	Zsig	Zmod	Zphz	Idc	Vdc	IERange
	#	s	Hz	ohm	ohm	V	ohm	°	A	V	#
	0	14	495.793	1391.14	-37864.8	1	37890.3	-87.8959	1.21337E-008	2.99891	7
	1	20	495.793	1392.52	-37917.2	1	37942.8	-87.8967	9.53793E-009	2.89898	7
	2	26	495.793	1392.27	-37958.3	1	37983.8	-87.8994	8.89947E-009	2.79902	7
	3	32	495.793	1395.4	-38020.1	1	38045.7	-87.8981	7.73207E-009	2.69907	7
	4	38	495.793	1393.52	-38087.7	1	38113.2	-87.9046	6.69746E-009	2.59908	7
	5	44	495.793	1393.84	-38153.1	1	38178.5	-87.9078	6.5234E-009	2.49915	7
	6	50	495.793	1395.85	-38230	1	38255.5	-87.909	6.1081E-009	2.3992	7
	7	56	495.793	1390.09	-38313.9	1	38339.1	-87.9221	6.47928E-009	2.29923	7
	8	62	495.793	1395.33	-38407.8	1	38433.1	-87.9194	6.39035E-009	2.19925	7
	9	68	495.793	1398.09	-38514.1	1	38539.4	-87.921	5.41784E-009	2.0993	7
	10	74	495.793	1395.84	-38628.1	1	38653.3	-87.9305	6.00545E-009	1.99932	7
	11	80	495.793	1396.51	-38764.2	1	38789.3	-87.9368	5.40555E-009	1.89939	7
	12	86	495.793	1404.48	-38928.2	1	38953.5	-87.9337	5.06865E-009	1.79937	7
	13	91	495.793	1397.04	-39096.7	1	39121.7	-87.9535	5.17856E-009	1.69947	7
	14	97	495.793	1403.63	-39299.7	1	39324.7	-87.9545	5.56692E-009	1.59959	7
	15	103	495.793	1406.46	-39523	1	39548	-87.9619	5.57549E-009	1.49964	7
	16	109	495.793	1404.65	-39787.1	1	39811.9	-87.9781	5.35295E-009	1.39966	7
	17	115	495.793	1411.47	-40090.8	1	40115.6	-87.9836	5.19676E-009	1.2997	7
	18	121	495.793	1410.09	-40428.9	1	40453.5	-88.0024	4.44529E-009	1.19976	7
	19	127	495.793	1419.39	-40832.5	1	40857.1	-88.0091	4.85971E-009	1.09972	7
	20	133	495.793	1424.56	-41267.9	1	41292.5	-88.0229	4.84659E-009	0.99975	7
	21	139	495.793	1431.48	-41766.9	1	41791.4	-88.0371	5.49251E-009	0.899792	7
	22	145	495.793	1437.24	-42299.5	1	42323.9	-88.054	5.74777E-009	0.799837	7
	23	151	495.793	1437.67	-42888.8	1	42912.9	-88.0801	5.62104E-009	0.699891	7
	24	157	495.793	1446.22	-43498.3	1	43522.3	-88.0957	5.79733E-009	0.599908	7
	25	163	495.793	1454.11	-44135.8	1	44159.8	-88.113	5.78461E-009	0.49997	7
	26	169	495.793	1458.53	-44767.3	1	44791.1	-88.134	6.00385E-009	0.400016	7
	27	175	495.793	1472.47	-45422.8	1	45446.6	-88.1433	5.73954E-009	0.30008	7
	28	181	495.793	1492.81	-46070	1	46094.1	-88.1441	5.17636E-009	0.200106	7
	29	187	495.793	1536.01	-46740.9	1	46766.1	-88.1178	4.84092E-009	0.100187	7
	30	193	495.793	1606.68	-47433.6	1	47460.8	-88.06	5.13476E-009	0.000221	7
	31	198	495.793	1719.47	-48181.1	1	48211.8	-87.9561	5.71025E-009	-0.100027	7
	32	204	495.793	1853.86	-49054.7	1	49089.8	-87.8357	4.67846E-009	-0.199962	7
	33	210	495.793	1960.85	-50052.2	1	50090.6	-87.7565	5.60872E-009	-0.299936	7
	34	216	495.793	1943.3	-51132.4	1	51169.3	-87.8235	5.95889E-010	-0.399884	6
	35	222	495.793	1845.76	-52105.9	1	52138.6	-87.9712	5.6029E-010	-0.499851	6
	36	227	495.793	1730.93	-52942	1	52970.3	-88.1274	5.62768E-010	-0.599784	6
	37	233	495.793	1653.44	-53680.9	1	53706.4	-88.2358	5.07104E-010	-0.699771	6
	38	238	495.793	1615.13	-54348.8	1	54372.8	-88.2978	5.11785E-010	-0.799701	6
	39	244	495.793	1599.78	-54981.2	1	55004.5	-88.3333	5.56539E-010	-0.899676	6
	40	250	495.793	1591.64	-55596.8	1	55619.6	-88.3602	5.34436E-010	-0.99964	6
	41	255	495.793	1590.62	-56187.6	1	56210.1	-88.3784	5.12129E-010	-1.09969	6
	42	261	495.793	1601.05	-56740.9	1	56763.5	-88.3837	5.11073E-010	-1.19964	6
	43	266	495.793	1622.84	-57245.4	1	57268.4	-88.3762	4.57809E-010	-1.29958	6
	44	272	495.793	1682.69	-57679.2	1	57703.8	-88.329	4.61996E-010	-1.39956	6
	45	278	495.793	1772.28	-57995.9	1	58023	-88.2497	3.98496E-010	-1.49951	6
	46	283	495.793	1796.5	-58193	1	58220.7	-88.2318	3.60866E-010	-1.59944	6
	47	289	495.793	1773.73	-58317.1	1	58344.1	-88.2579	4.09989E-010	-1.69938	6
	48	294	495.793	1740.64	-58384	1	58410	-88.2923	3.58468E-010	-1.79932	6
	49	299	495.793	1712.51	-58345.5	1	58370.6	-88.3188	3.72313E-010	-1.89931	6
	50	305	495.793	1670.76	-58238.3	1	58262.3	-88.3567	3.29354E-010	-1.99925	6
	51	311	495.793	1634.94	-58139.1	1	58162.1	-88.3892	3.47021E-010	-2.09924	6
	52	316	495.793	1599.83	-58044.2	1	58066.2	-88.4212	2.50423E-010	-2.1992	6
	53	321	495.793	1572.18	-57963	1	57984.3	-88.4463	3.55296E-010	-2.29919	6
	54	326	495.793	1552	-57888.4	1	57909.2	-88.4643	3.43935E-010	-2.39912	6
	55	332	495.793	1532.5	-57825.9	1	57846.2	-88.4819	2.75723E-010	-2.49909	6
	56	337	495.793	1528.2	-57764.7	1	57785	-88.4846	3.39747E-010	-2.59904	6
	57	342	495.793	1531.23	-57664.3	1	57684.7	-88.4789	3.00758E-010	-2.69903	6
	58	347	495.793	1540.14	-57578.3	1	57598.9	-88.4678	3.53811E-010	-2.799	6
	59	353	495.793	1577.16	-57475	1	57496.7	-88.4282	2.79521E-010	-2.89891	6
	60	358	495.793	1650.44	-57334.5	1	57358.3	-88.3511	3.45747E-010	-2.99888	6