File: OriginPro/EIS/C0_MS_pH7_01.DTA
EXPLAIN
TAG	MOTTSCHOTTKY
TITLE	LABEL	Mott-Schottky	Test &Identifier
DATE	LABEL	29-10-2009	Date
TIME	LABEL	20:24:38	Time
NOTES	NOTES	2	&Notes...
	Si/SiO2
	T=25.3oC
PSTAT	PSTAT	REF600-07089	Potentiostat
VINIT	POTEN	5.00000E+000	F	Initial &Voltage (V)
VFINAL	POTEN	-5.00000E+000	F	Final &Voltage (V)
VSTEP	QUANT	1.00000E-001	&Voltage Step (V)
FREQINIT	QUANT	1.00000E+003	Fre&quency (Hz)
VAC	QUANT	1.00000E+001	AC &Voltage (mV rms)
AREA	QUANT	1.00000E-002	&Area (cm^2)
CONDIT	TWOPARAM	T	2.00000E+001	5.00000E+000	Conditionin&g	Time(s)	E(V)
DELAY	TWOPARAM	T	2.50000E-001	0.00000E+000	Init. De&lay	Time(s)	Stab.(mV/s)
SPEED	SELECTOR	1	&Optimize for:
ZGUESS	QUANT	1.00000E+002	E&stimated Z (ohms)
OCVCURVE	TABLE	1
	Pt	T	Vf	Vm	Ach	Over
	#	s	V vs. Ref.	V	V	bits
	0	0.258333	5.62074E+000	0.00000E+000	4.72320E-004	.............
EOC	QUANT	5.62074	Open Circuit (V)
PSTATMODEL	IQUANT	4	Pstat Model
PSTATSECTION	LABEL	REF600-07089	Pstat Section
PSTATSERIALNO	LABEL	07089	Pstat Serial Number
CTRLMODE	IQUANT	1	Control Mode
IESTAB	IQUANT	0	I/E Stability
CASPEED	IQUANT	2	Control Amp Speed
CONVENTION	IQUANT	1	Current Convention
ICHRANGE	IQUANT	2	Ich Range
ICHRANGEMODE	TOGGLE	F	Ich Auto Range
ICHOFFSETENABLE	TOGGLE	T	Ich Offset Enable
ICHOFFSET	QUANT	0	Ich Offset (V)
ICHFILTER	IQUANT	3	Ich Filter
VCHRANGE	IQUANT	2	Vch Range
VCHRANGEMODE	TOGGLE	F	Vch Auto Range
VCHOFFSETENABLE	TOGGLE	T	Vch Offset Enable
VCHOFFSET	QUANT	0	Vch Offset (V)
VCHFILTER	IQUANT	3	Vch Filter
ACHRANGE	IQUANT	2	Ach Range
ACHOFFSETENABLE	TOGGLE	F	Ach Offset Enable
ACHOFFSET	QUANT	0	Ach Offset (V)
ACHFILTER	IQUANT	1	Ach Filter
IERANGELOWERLIMIT	IQUANT	1	I/E Range Lower Limit
IERANGEMODE	TOGGLE	F	I/E AutoRange
IERANGE	IQUANT	10	I/E Range
POSFEEDENABLE	TOGGLE	F	Positive Feedback IR Comp
POSFEEDRESISTANCE	QUANT	0	Positive Feedback Resistance (ohm)
ACHSELECT	IQUANT	0	Ach Select
CABLEID	IQUANT	14	Cable ID
DCCALDATE	LABEL	14-4-2009	DC Calibration Date
ACCALDATE	LABEL	14-4-2009	AC Calibration Date
THERMOSELECT	IQUANT	0	Thermo Select
FRAMEWORKVERSION	QUANT	5.5	Framework Version
INSTRUMENTVERSION	LABEL	2.00	Instrument Version
ZCURVE	TABLE
	Pt	Time	Freq	Zreal	Zimag	Zsig	Zmod	Zphz	Idc	Vdc	IERange
	#	s	Hz	ohm	ohm	V	ohm	°	A	V	#
	0	10	998.26	1443.07	-18559.6	1	18615.6	-85.554	1.24447E-008	4.99818	7
	1	15	998.26	1432.96	-18560.4	1	18615.6	-85.5852	2.33861E-008	4.89829	7
	2	21	998.26	1380.15	-18600.3	1	18651.5	-85.7564	1.02431E-008	4.79832	7
	3	26	998.26	1366.3	-18571.8	1	18622	-85.7924	9.61085E-009	4.69833	7
	4	32	998.26	1421.47	-18604.1	1	18658.3	-85.6307	2.07731E-008	4.5984	7
	5	38	998.26	1350.17	-18578	1	18627	-85.8433	8.70856E-009	4.49841	7
	6	45	998.26	1330.23	-18568.3	1	18615.9	-85.9024	2.30004E-008	4.3985	7
	7	51	998.26	1417.08	-18619.9	1	18673.7	-85.6479	1.49767E-008	4.29852	7
	8	57	998.26	1369.23	-18636.9	1	18687.1	-85.7981	2.42128E-008	4.19856	7
	9	63	998.26	1446.31	-18648.4	1	18704.4	-85.5652	1.57888E-008	4.09859	7
	10	70	998.26	1355.53	-18682.2	1	18731.3	-85.85	1.65564E-008	3.99859	7
	11	75	998.26	1427.83	-18633.9	1	18688.5	-85.6183	1.0149E-008	3.89861	7
	12	81	998.26	1424.24	-18637	1	18691.3	-85.63	1.3091E-008	3.79863	7
	13	87	998.26	1313.33	-18656.8	1	18703	-85.9734	1.01023E-008	3.6987	7
	14	92	998.26	1372.01	-18695.1	1	18745.4	-85.8027	9.02136E-009	3.5987	7
	15	98	998.26	1433.06	-18725.5	1	18780.3	-85.6237	1.14981E-008	3.4988	7
	16	103	998.26	1384.33	-18630.3	1	18681.7	-85.7504	7.32017E-009	3.39879	7
	17	109	998.26	1405.67	-18701.4	1	18754.2	-85.7015	1.94403E-008	3.2989	7
	18	115	998.26	1358.66	-18757.9	1	18807	-85.8572	9.56658E-009	3.19884	7
	19	120	998.26	1365.69	-18756.9	1	18806.6	-85.8356	1.5344E-008	3.09889	7
	20	126	998.26	1378.68	-18797.5	1	18848	-85.8052	2.35536E-008	2.99894	7
	21	132	998.26	1341.05	-18734.4	1	18782.3	-85.9056	1.94727E-008	2.89899	7
	22	137	998.26	1364.07	-18862.2	1	18911.4	-85.8637	1.12382E-008	2.79903	7
	23	143	998.26	1426.28	-18882.2	1	18935.9	-85.6803	1.15813E-008	2.69907	7
	24	149	998.26	1450.08	-18925.4	1	18980.9	-85.6185	1.48557E-008	2.59909	7
	25	154	998.26	1464.23	-18879.4	1	18936	-85.5652	2.0235E-008	2.49917	7
	26	160	998.26	1416.42	-18930.9	1	18983.8	-85.7211	1.58232E-008	2.3992	7
	27	166	998.26	1403.62	-18944.7	1	18996.6	-85.7627	1.79763E-008	2.29925	7
	28	171	998.26	1380.36	-19010.6	1	19060.7	-85.8471	1.74406E-008	2.19926	7
	29	177	998.26	1384.9	-19074.6	1	19124.8	-85.8474	2.15023E-008	2.09931	7
	30	185	998.26	1380.77	-19092.2	1	19142.1	-85.8635	2.23077E-008	1.99934	7
	31	193	998.26	1400.12	-19199	1	19250	-85.829	1.91605E-008	1.89939	7
	32	202	998.26	1384.43	-19218	1	19267.8	-85.8797	2.43629E-008	1.79939	7
	33	210	998.26	1452.59	-19329.1	1	19383.6	-85.7023	1.23832E-008	1.69945	7
	34	219	998.26	1397.91	-19364.9	1	19415.3	-85.8711	1.15102E-008	1.59957	7
	35	227	998.26	1431.44	-19486.1	1	19538.6	-85.7986	1.8255E-008	1.49964	7
	36	235	998.26	1391.3	-19692.1	1	19741.2	-85.9586	2.27188E-008	1.39967	7
	37	243	998.26	1393.54	-19777.7	1	19826.8	-85.9696	2.39839E-008	1.29971	7
	38	252	998.26	1419.32	-19899.7	1	19950.3	-85.9204	2.27557E-008	1.19977	7
	39	260	998.26	1403.3	-20206.3	1	20255	-86.0273	1.50408E-008	1.09972	7
	40	271	998.26	1414.47	-20323.2	1	20372.4	-86.0187	2.73335E-008	0.99976	7
	41	279	998.26	1378.25	-20577.7	1	20623.8	-86.1682	2.14069E-008	0.899796	7
	42	290	998.26	1428.98	-20795.7	1	20844.7	-86.0691	1.47416E-008	0.799836	7
	43	304	998.26	1361.9	-21061.2	1	21105.1	-86.3002	1.48938E-008	0.699874	7
	44	318	998.26	1400.78	-21422.6	1	21468.3	-86.2589	2.70833E-008	0.599929	7
	45	333	998.26	1467.93	-21683.6	1	21733.2	-86.1271	2.03755E-008	0.499984	7
	46	347	998.26	1436.52	-21953.4	1	22000.4	-86.2562	1.99371E-008	0.400014	7
	47	361	998.26	1538.39	-22328.4	1	22381.3	-86.0586	1.83641E-008	0.300077	7
	48	366	998.26	1546.64	-22652.8	1	22705.5	-86.0941	1.93534E-008	0.200104	7
	49	372	998.26	1529.52	-22905.8	1	22956.8	-86.1798	1.21983E-008	0.100173	7
	50	378	998.26	1474.72	-23331.9	1	23378.4	-86.3834	1.15416E-008	0.000195	7
	51	383	998.26	1594.26	-23597.1	1	23650.9	-86.1349	1.63974E-008	-0.100033	7
	52	389	998.26	1675.46	-24111.9	1	24170.1	-86.0251	1.09951E-008	-0.199988	7
	53	395	998.26	1715.39	-24603.3	1	24663	-86.0117	1.4397E-008	-0.299951	7
	54	401	998.26	1775.84	-25011.9	1	25074.9	-85.9388	1.23485E-008	-0.399898	7
	55	407	998.26	1663.16	-25677.4	1	25731.2	-86.2941	2.08171E-008	-0.499844	7
	56	413	998.26	1666.33	-25861.8	1	25915.4	-86.3134	1.95494E-008	-0.599779	7
	57	418	998.26	1553.04	-26390.1	1	26435.8	-86.6321	1.69382E-008	-0.69977	7
	58	424	998.26	1507.97	-26731.6	1	26774.1	-86.7713	2.41945E-008	-0.799684	7
	59	430	998.26	1556.23	-27028.3	1	27073.1	-86.7047	1.1229E-008	-0.899688	7
	60	436	998.26	1555.07	-27404.8	1	27448.9	-86.7523	2.14329E-008	-0.99963	7
	61	442	998.26	1469.83	-27619	1	27658.1	-86.9537	2.41736E-008	-1.09969	7
	62	449	998.26	1561.09	-27793.2	1	27837	-86.7852	1.81929E-008	-1.19965	7
	63	455	998.26	1601.42	-28076.5	1	28122.1	-86.7355	1.22532E-008	-1.29959	7
	64	461	998.26	1514.4	-28340.5	1	28381	-86.9413	2.41829E-008	-1.39955	7
	65	467	998.26	1537.58	-28598	1	28639.3	-86.9224	2.4399E-008	-1.4995	7
	66	472	998.26	1629.42	-28761	1	28807.1	-86.7574	1.36054E-008	-1.59945	7
	67	478	998.26	1705.66	-28906.8	1	28957.1	-86.6231	2.30165E-008	-1.69938	7
	68	484	998.26	1530.83	-28884.4	1	28924.9	-86.9662	2.08412E-008	-1.79932	7
	69	490	998.26	1637.27	-28832.8	1	28879.2	-86.7499	1.7759E-008	-1.89932	7
	70	496	998.26	1562.7	-28902.9	1	28945.1	-86.9052	1.22827E-008	-1.99927	7
	71	502	998.26	1507.23	-28846.3	1	28885.7	-87.009	2.2656E-008	-2.09923	7
	72	507	998.26	1659.03	-28793.7	1	28841.5	-86.7024	1.87757E-008	-2.19921	7
	73	513	998.26	1551.89	-28802	1	28843.8	-86.9158	2.31761E-008	-2.29918	7
	74	519	998.26	1433.99	-28901	1	28936.6	-87.1595	1.84229E-008	-2.39911	7
	75	525	998.26	1431.6	-28936.3	1	28971.7	-87.1676	1.98934E-008	-2.49909	7
	76	530	998.26	1500.32	-28808.2	1	28847.2	-87.0188	1.60935E-008	-2.59905	7
	77	536	998.26	1331.6	-28725.5	1	28756.3	-87.3459	2.11707E-008	-2.699	7
	78	541	998.26	1499.7	-28702.1	1	28741.2	-87.009	1.19109E-008	-2.799	7
	79	546	998.26	1471.64	-28863	1	28900.5	-87.0812	1.96173E-008	-2.89891	7
	80	552	998.26	1418.65	-28714.8	1	28749.9	-87.1716	2.3212E-008	-2.99887	7
	81	558	998.26	1488.58	-28630.1	1	28668.8	-87.0237	2.39083E-008	-3.09882	7
	82	563	998.26	1473.53	-28674.2	1	28712.1	-87.0582	1.28057E-008	-3.19887	7
	83	569	998.26	1403.93	-28646.6	1	28681	-87.1943	2.23867E-008	-3.29874	7
	84	575	998.26	1365.41	-28616.3	1	28648.8	-87.2682	1.75097E-008	-3.39871	7
	85	580	998.26	1452.14	-28631.9	1	28668.7	-87.0966	2.36187E-008	-3.49867	7
	86	586	998.26	1555.02	-28495.9	1	28538.3	-86.8765	1.09161E-008	-3.59866	7
	87	592	998.26	1381.99	-28597.3	1	28630.7	-87.2333	2.2388E-008	-3.69857	7
	88	598	998.26	1440.77	-28612.1	1	28648.4	-87.1173	2.20385E-008	-3.79853	7
	89	603	998.26	1429.67	-28407.3	1	28443.2	-87.1189	1.25578E-008	-3.89853	7
	90	609	998.26	1485.86	-28479.2	1	28517.9	-87.0134	1.47051E-008	-3.99848	7
	91	615	998.26	1614.99	-28385.4	1	28431.3	-86.7437	1.34317E-008	-4.09841	7
	92	621	998.26	1482.25	-28402	1	28440.7	-87.0126	1.00933E-008	-4.1984	7
	93	627	998.26	1581.28	-28334.2	1	28378.3	-86.8057	2.01035E-008	-4.29832	7
	94	633	998.26	1585.73	-28167.2	1	28211.8	-86.7778	2.3414E-008	-4.39835	7
	95	638	998.26	1586.8	-28142.5	1	28187.2	-86.7728	1.10057E-008	-4.49827	7
	96	644	998.26	1721.11	-28048.3	1	28101.1	-86.4886	2.17845E-008	-4.59827	7
	97	650	998.26	1627.46	-27873.5	1	27921	-86.6584	2.38981E-008	-4.69818	7
	98	656	998.26	1623.15	-27901.5	1	27948.6	-86.6706	2.40812E-008	-4.79816	7
	99	662	998.26	1600.8	-27675.2	1	27721.5	-86.6896	1.67271E-008	-4.89809	7
	100	668	998.26	1696.59	-27534.6	1	27586.8	-86.4741	1.20888E-008	-4.99819	7