File: OriginPro/EIS/C0_MS_pH10_02.DTA
EXPLAIN
TAG	MOTTSCHOTTKY
TITLE	LABEL	Mott-Schottky	Test &Identifier
DATE	LABEL	29-10-2009	Date
TIME	LABEL	23:24:27	Time
NOTES	NOTES	2	&Notes...
	Si/SiO2
	T=25.3oC
PSTAT	PSTAT	REF600-07089	Potentiostat
VINIT	POTEN	3.00000E+000	F	Initial &Voltage (V)
VFINAL	POTEN	-3.00000E+000	F	Final &Voltage (V)
VSTEP	QUANT	1.00000E-001	&Voltage Step (V)
FREQINIT	QUANT	1.00000E+003	Fre&quency (Hz)
VAC	QUANT	1.00000E+001	AC &Voltage (mV rms)
AREA	QUANT	1.00000E-002	&Area (cm^2)
CONDIT	TWOPARAM	T	2.00000E+001	3.00000E+000	Conditionin&g	Time(s)	E(V)
DELAY	TWOPARAM	T	2.50000E-001	0.00000E+000	Init. De&lay	Time(s)	Stab.(mV/s)
SPEED	SELECTOR	1	&Optimize for:
ZGUESS	QUANT	1.00000E+002	E&stimated Z (ohms)
OCVCURVE	TABLE	1
	Pt	T	Vf	Vm	Ach	Over
	#	s	V vs. Ref.	V	V	bits
	0	0.258333	3.64802E+000	0.00000E+000	6.31926E-005	.............
EOC	QUANT	3.64802	Open Circuit (V)
PSTATMODEL	IQUANT	4	Pstat Model
PSTATSECTION	LABEL	REF600-07089	Pstat Section
PSTATSERIALNO	LABEL	07089	Pstat Serial Number
CTRLMODE	IQUANT	1	Control Mode
IESTAB	IQUANT	0	I/E Stability
CASPEED	IQUANT	2	Control Amp Speed
CONVENTION	IQUANT	1	Current Convention
ICHRANGE	IQUANT	2	Ich Range
ICHRANGEMODE	TOGGLE	F	Ich Auto Range
ICHOFFSETENABLE	TOGGLE	T	Ich Offset Enable
ICHOFFSET	QUANT	0	Ich Offset (V)
ICHFILTER	IQUANT	3	Ich Filter
VCHRANGE	IQUANT	2	Vch Range
VCHRANGEMODE	TOGGLE	F	Vch Auto Range
VCHOFFSETENABLE	TOGGLE	T	Vch Offset Enable
VCHOFFSET	QUANT	0	Vch Offset (V)
VCHFILTER	IQUANT	3	Vch Filter
ACHRANGE	IQUANT	2	Ach Range
ACHOFFSETENABLE	TOGGLE	F	Ach Offset Enable
ACHOFFSET	QUANT	0	Ach Offset (V)
ACHFILTER	IQUANT	1	Ach Filter
IERANGELOWERLIMIT	IQUANT	1	I/E Range Lower Limit
IERANGEMODE	TOGGLE	F	I/E AutoRange
IERANGE	IQUANT	10	I/E Range
POSFEEDENABLE	TOGGLE	F	Positive Feedback IR Comp
POSFEEDRESISTANCE	QUANT	0	Positive Feedback Resistance (ohm)
ACHSELECT	IQUANT	0	Ach Select
CABLEID	IQUANT	14	Cable ID
DCCALDATE	LABEL	14-4-2009	DC Calibration Date
ACCALDATE	LABEL	14-4-2009	AC Calibration Date
THERMOSELECT	IQUANT	0	Thermo Select
FRAMEWORKVERSION	QUANT	5.5	Framework Version
INSTRUMENTVERSION	LABEL	2.00	Instrument Version
ZCURVE	TABLE
	Pt	Time	Freq	Zreal	Zimag	Zsig	Zmod	Zphz	Idc	Vdc	IERange
	#	s	Hz	ohm	ohm	V	ohm	°	A	V	#
	0	10	998.26	1350.79	-18289.4	1	18339.2	-85.776	1.23997E-008	2.99891	7
	1	16	998.26	1328.68	-18325.1	1	18373.2	-85.853	7.37973E-009	2.89895	7
	2	21	998.26	1259.31	-18324.5	1	18367.8	-86.0687	4.72069E-009	2.799	7
	3	26	998.26	1282.73	-18350.3	1	18395	-86.0014	1.16938E-008	2.69908	7
	4	32	998.26	1276.9	-18358.9	1	18403.3	-86.0214	1.0507E-008	2.59909	7
	5	37	998.26	1263.4	-18328.5	1	18372	-86.0568	1.13679E-008	2.49915	7
	6	43	998.26	1352.5	-18402.6	1	18452.3	-85.7966	1.71264E-009	2.39916	7
	7	48	998.26	1375.95	-18473.7	1	18524.8	-85.7404	1.10006E-008	2.29924	7
	8	54	998.26	1328.52	-18426.9	1	18474.8	-85.8763	2.63256E-009	2.19922	7
	9	60	998.26	1276.76	-18506.6	1	18550.5	-86.0534	1.33773E-008	2.0993	7
	10	65	998.26	1338.12	-18538.9	1	18587.2	-85.8716	8.92812E-009	1.99932	7
	11	71	998.26	1305.85	-18636.7	1	18682.4	-85.9919	2.57543E-009	1.89935	7
	12	77	998.26	1373.15	-18613.5	1	18664.1	-85.7809	2.62878E-010	1.79935	7
	13	82	998.26	1294.59	-18770.3	1	18814.8	-86.0545	1.00833E-008	1.69947	7
	14	88	998.26	1265.88	-18734.7	1	18777.4	-86.1345	4.0093E-009	1.59957	7
	15	94	998.26	1336.02	-18848.5	1	18895.8	-85.9455	1.38855E-009	1.49961	7
	16	99	998.26	1291.56	-18853.3	1	18897.5	-86.0811	1.13395E-008	1.39967	7
	17	107	998.26	1347.1	-18999.2	1	19046.9	-85.9443	2.67388E-009	1.29968	7
	18	116	998.26	1345.32	-19128.2	1	19175.5	-85.9769	3.73861E-009	1.19975	7
	19	124	998.26	1365	-19192.3	1	19240.8	-85.9318	8.21683E-009	1.09971	7
	20	132	998.26	1243.8	-19334.2	1	19374.1	-86.3191	4.05749E-009	0.99973	7
	21	140	998.26	1290.29	-19556.1	1	19598.6	-86.2252	9.16782E-009	0.899791	7
	22	152	998.26	1314.74	-19735.5	1	19779.2	-86.1887	1.26648E-008	0.79985	7
	23	163	998.26	1279.11	-19928.6	1	19969.7	-86.3275	1.02273E-008	0.699887	7
	24	168	998.26	1341.21	-20175.7	1	20220.2	-86.1968	1.03379E-008	0.599907	7
	25	174	998.26	1395.12	-20419.7	1	20467.3	-86.0915	1.34714E-008	0.499987	7
	26	180	998.26	1319.8	-20682.3	1	20724.3	-86.3487	4.59949E-009	0.399997	7
	27	185	998.26	1420.33	-20999.5	1	21047.5	-86.1306	2.74229E-009	0.300065	7
	28	191	998.26	1345.3	-21228.7	1	21271.3	-86.3739	1.27674E-008	0.200111	7
	29	197	998.26	1377.11	-21614.4	1	21658.2	-86.3545	1.04498E-008	0.100193	7
	30	202	998.26	1371.73	-21818	1	21861.1	-86.4025	9.09133E-009	0.000226	7
	31	208	998.26	1224.35	-22260.3	1	22294	-86.8518	1.0945E-009	-0.100036	7
	32	214	998.26	1345.89	-22572	1	22612.1	-86.5877	6.71523E-009	-0.199965	7
	33	219	998.26	1436.76	-22924.8	1	22969.8	-86.4138	8.16517E-009	-0.299933	7
	34	225	998.26	1533.08	-23276.3	1	23326.8	-86.2317	1.35434E-009	-0.399889	7
	35	231	998.26	1589.65	-23797.9	1	23850.9	-86.1784	1.09215E-008	-0.499838	7
	36	236	998.26	1651.81	-24190	1	24246.4	-86.0937	7.70686E-009	-0.599785	7
	37	242	998.26	1645.99	-24694.5	1	24749.3	-86.1866	1.2828E-009	-0.699778	7
	38	248	998.26	1505.54	-25139.7	1	25184.7	-86.5728	6.8465E-009	-0.799689	7
	39	254	998.26	1496.98	-25510	1	25553.9	-86.6416	2.81557E-009	-0.899685	7
	40	260	998.26	1507.42	-25892.8	1	25936.6	-86.6681	9.95603E-009	-0.99961	7
	41	266	998.26	1490.99	-26214.7	1	26257.1	-86.7448	2.72577E-009	-1.09968	7
	42	272	998.26	1453.19	-26510.2	1	26550	-86.8624	3.04771E-009	-1.19963	7
	43	277	998.26	1523.67	-26831.1	1	26874.4	-86.7498	8.02128E-009	-1.29957	7
	44	283	998.26	1511.78	-27014.5	1	27056.8	-86.797	7.02875E-009	-1.39954	7
	45	288	998.26	1406.74	-27425	1	27461.1	-87.0636	7.20915E-009	-1.49948	7
	46	293	998.26	1319.75	-27571	1	27602.6	-87.2595	1.82397E-009	-1.59944	7
	47	299	998.26	1526.8	-27831.7	1	27873.6	-86.86	1.18604E-008	-1.69935	7
	48	304	998.26	1568.72	-28005.6	1	28049.5	-86.794	1.07047E-008	-1.7993	7
	49	309	998.26	1534.83	-28102.6	1	28144.5	-86.8739	7.58098E-010	-1.89932	7
	50	315	998.26	1541.68	-28037	1	28079.3	-86.8526	8.26459E-010	-1.99926	7
	51	320	998.26	1471.71	-27979.5	1	28018.2	-86.989	1.91179E-009	-2.09923	7
	52	326	998.26	1643.58	-28072.2	1	28120.3	-86.6493	2.08178E-010	-2.19919	7
	53	331	998.26	1556.93	-28128.5	1	28171.5	-86.8319	4.03651E-009	-2.29918	7
	54	337	998.26	1469.78	-27886	1	27924.7	-86.9829	2.36261E-009	-2.39912	7
	55	343	998.26	1411.21	-28183.4	1	28218.7	-87.1335	9.48994E-009	-2.49905	7
	56	348	998.26	1474.98	-28010.6	1	28049.4	-86.9857	1.14341E-008	-2.59901	7
	57	353	998.26	1557.47	-27969.2	1	28012.5	-86.8128	1.99726E-009	-2.699	7
	58	359	998.26	1496.71	-27896.7	1	27936.9	-86.9289	7.8054E-009	-2.79896	7
	59	364	998.26	1675	-27772.5	1	27822.9	-86.5486	1.68508E-009	-2.8989	7
	60	369	998.26	1534.26	-27667.2	1	27709.7	-86.826	1.20553E-008	-2.99884	7