File: OriginPro/EIS/C0_MS_pH4_03a.DTA
EXPLAIN
TAG	MOTTSCHOTTKY
TITLE	LABEL	Mott-Schottky	Test &Identifier
DATE	LABEL	29-10-2009	Date
TIME	LABEL	22:11:06	Time
NOTES	NOTES	2	&Notes...
	Si/SiO2
	T=25.3oC
PSTAT	PSTAT	REF600-07089	Potentiostat
VINIT	POTEN	-3.00000E+000	F	Initial &Voltage (V)
VFINAL	POTEN	3.00000E+000	F	Final &Voltage (V)
VSTEP	QUANT	1.00000E-001	&Voltage Step (V)
FREQINIT	QUANT	1.00000E+003	Fre&quency (Hz)
VAC	QUANT	1.00000E+001	AC &Voltage (mV rms)
AREA	QUANT	1.00000E-002	&Area (cm^2)
CONDIT	TWOPARAM	T	2.00000E+001	-3.00000E+000	Conditionin&g	Time(s)	E(V)
DELAY	TWOPARAM	T	2.50000E-001	0.00000E+000	Init. De&lay	Time(s)	Stab.(mV/s)
SPEED	SELECTOR	1	&Optimize for:
ZGUESS	QUANT	1.00000E+002	E&stimated Z (ohms)
OCVCURVE	TABLE	1
	Pt	T	Vf	Vm	Ach	Over
	#	s	V vs. Ref.	V	V	bits
	0	0.258333	-2.05029E+000	0.00000E+000	1.80357E-004	.............
EOC	QUANT	-2.05029	Open Circuit (V)
PSTATMODEL	IQUANT	4	Pstat Model
PSTATSECTION	LABEL	REF600-07089	Pstat Section
PSTATSERIALNO	LABEL	07089	Pstat Serial Number
CTRLMODE	IQUANT	1	Control Mode
IESTAB	IQUANT	0	I/E Stability
CASPEED	IQUANT	2	Control Amp Speed
CONVENTION	IQUANT	1	Current Convention
ICHRANGE	IQUANT	2	Ich Range
ICHRANGEMODE	TOGGLE	F	Ich Auto Range
ICHOFFSETENABLE	TOGGLE	T	Ich Offset Enable
ICHOFFSET	QUANT	0	Ich Offset (V)
ICHFILTER	IQUANT	3	Ich Filter
VCHRANGE	IQUANT	2	Vch Range
VCHRANGEMODE	TOGGLE	F	Vch Auto Range
VCHOFFSETENABLE	TOGGLE	T	Vch Offset Enable
VCHOFFSET	QUANT	0	Vch Offset (V)
VCHFILTER	IQUANT	3	Vch Filter
ACHRANGE	IQUANT	2	Ach Range
ACHOFFSETENABLE	TOGGLE	F	Ach Offset Enable
ACHOFFSET	QUANT	0	Ach Offset (V)
ACHFILTER	IQUANT	1	Ach Filter
IERANGELOWERLIMIT	IQUANT	1	I/E Range Lower Limit
IERANGEMODE	TOGGLE	F	I/E AutoRange
IERANGE	IQUANT	10	I/E Range
POSFEEDENABLE	TOGGLE	F	Positive Feedback IR Comp
POSFEEDRESISTANCE	QUANT	0	Positive Feedback Resistance (ohm)
ACHSELECT	IQUANT	0	Ach Select
CABLEID	IQUANT	14	Cable ID
DCCALDATE	LABEL	14-4-2009	DC Calibration Date
ACCALDATE	LABEL	14-4-2009	AC Calibration Date
THERMOSELECT	IQUANT	0	Thermo Select
FRAMEWORKVERSION	QUANT	5.5	Framework Version
INSTRUMENTVERSION	LABEL	2.00	Instrument Version
ZCURVE	TABLE
	Pt	Time	Freq	Zreal	Zimag	Zsig	Zmod	Zphz	Idc	Vdc	IERange
	#	s	Hz	ohm	ohm	V	ohm	°	A	V	#
	0	10	998.26	1624.04	-29107.2	1	29152.5	-86.8065	8.12173E-009	-2.9989	7
	1	16	998.26	1644.1	-28265.6	1	28313.4	-86.6711	1.35581E-008	-2.8989	7
	2	22	998.26	1611.08	-27809.3	1	27855.9	-86.6844	1.12666E-008	-2.79898	7
	3	28	998.26	1662.08	-27703.9	1	27753.8	-86.5667	1.44572E-008	-2.699	7
	4	34	998.26	1786.49	-27653.6	1	27711.2	-86.3037	6.67334E-009	-2.59906	7
	5	40	998.26	1764.91	-27767.7	1	27823.7	-86.3632	1.11251E-008	-2.49908	7
	6	46	998.26	1759.79	-27824.1	1	27879.7	-86.381	1.30169E-008	-2.39911	7
	7	51	998.26	1663.55	-27834	1	27883.7	-86.5797	1.21925E-008	-2.29918	7
	8	57	998.26	1849.14	-28073.4	1	28134.3	-86.2315	4.0271E-009	-2.19921	7
	9	63	998.26	1851.41	-28223.8	1	28284.4	-86.2469	6.57278E-009	-2.09924	7
	10	69	998.26	1706.33	-28448	1	28499.1	-86.5675	1.06342E-008	-1.99925	7
	11	75	998.26	1695.23	-28740.1	1	28790	-86.6243	9.88543E-009	-1.8993	7
	12	81	998.26	1676.67	-29008.4	1	29056.8	-86.692	8.55243E-009	-1.79932	7
	13	87	998.26	1673.45	-29074.6	1	29122.7	-86.7058	1.00663E-008	-1.69937	7
	14	93	998.26	1456.41	-29243.8	1	29280.1	-87.1489	6.55995E-009	-1.59944	7
	15	99	998.26	1462.76	-29025.1	1	29062	-87.1149	6.1116E-010	-1.49953	7
	16	105	998.26	1354.75	-28855.5	1	28887.3	-87.312	9.04754E-009	-1.39954	7
	17	111	998.26	1228.67	-28613.8	1	28640.1	-87.5412	2.01278E-009	-1.29959	7
	18	117	998.26	1421.28	-28366.7	1	28402.3	-87.1317	1.87926E-009	-1.19965	7
	19	123	998.26	1288.49	-28060.5	1	28090.1	-87.3709	8.8736E-009	-1.09968	7
	20	129	998.26	1242.16	-27750.4	1	27778.2	-87.437	1.53722E-010	-0.99965	7
	21	135	998.26	1236.59	-27355	1	27382.9	-87.4117	8.75093E-009	-0.899671	7
	22	141	998.26	1281.08	-27124.7	1	27155	-87.296	4.2267E-010	-0.7997	7
	23	147	998.26	1334.44	-26722.2	1	26755.5	-87.1412	2.39501E-009	-0.699773	7
	24	153	998.26	1441.92	-26571.1	1	26610.2	-86.8938	6.969E-009	-0.59978	7
	25	159	998.26	1451.52	-26058.6	1	26099	-86.8118	1.80187E-009	-0.499866	7
	26	165	998.26	1509.84	-25567.8	1	25612.3	-86.6205	9.51295E-009	-0.399871	7
	27	171	998.26	1542.54	-25194.3	1	25241.5	-86.4964	1.50652E-009	-0.299952	7
	28	176	998.26	1469.53	-24640.7	1	24684.5	-86.587	-1.75824E-009	-0.199987	7
	29	182	998.26	1351.85	-24288.2	1	24325.8	-86.8143	9.91654E-009	-0.100052	8
	30	189	998.26	1345.23	-23722.8	1	23760.9	-86.7545	1.03697E-008	0.000225	7
	31	194	998.26	1375.72	-23419.8	1	23460.2	-86.6382	3.64684E-008	0.100181	8
	32	200	998.26	1255.39	-23026.9	1	23061.1	-86.8794	2.00495E-009	0.200085	7
	33	206	998.26	1223.85	-22750.4	1	22783.3	-86.9208	7.49885E-009	0.300085	7
	34	211	998.26	1285.79	-22403.1	1	22440	-86.7152	3.09937E-009	0.400007	7
	35	216	998.26	1286.32	-22106.4	1	22143.8	-86.6699	1.1138E-008	0.499987	7
	36	222	998.26	1237.05	-21773.9	1	21809	-86.7483	7.3525E-010	0.599897	7
	37	228	998.26	1237.63	-21455.7	1	21491.4	-86.6987	1.21149E-008	0.699908	7
	38	234	998.26	1183.24	-21129.8	1	21162.9	-86.7949	1.68729E-009	0.79984	7
	39	239	998.26	1201.82	-20897	1	20931.5	-86.7085	1.14419E-008	0.899807	7
	40	245	998.26	1154.94	-20652.3	1	20684.5	-86.7992	7.64357E-009	0.99975	7
	41	250	998.26	1226.1	-20484.9	1	20521.5	-86.5747	1.12482E-008	1.09974	7
	42	256	998.26	1199.3	-20314.9	1	20350.2	-86.6214	1.07425E-008	1.19978	7
	43	261	998.26	1176.09	-20029.7	1	20064.2	-86.6396	5.45467E-010	1.29969	7
	44	266	998.26	1183.38	-19867.9	1	19903.1	-86.5914	1.09136E-008	1.39968	7
	45	272	998.26	1154.83	-19776.5	1	19810.2	-86.6581	1.01589E-008	1.49965	7
	46	277	998.26	1259.61	-19683.6	1	19723.9	-86.3385	6.31691E-009	1.59959	7
	47	282	998.26	1179.04	-19596.5	1	19631.9	-86.5569	3.14573E-009	1.69945	7
	48	288	998.26	1145.15	-19519.5	1	19553.1	-86.6425	-5.19435E-010	1.79935	7
	49	293	998.26	1210.19	-19399.3	1	19437	-86.4303	6.51234E-009	1.89939	7
	50	298	998.26	1157.86	-19353.2	1	19387.8	-86.5762	9.53462E-009	1.99932	7
	51	304	998.26	1177.97	-19304.9	1	19340.8	-86.5082	1.20562E-008	2.09931	7
	52	309	998.26	1142.69	-19212	1	19245.9	-86.5962	4.33001E-009	2.19925	7
	53	314	998.26	1216.07	-19228.4	1	19266.8	-86.3812	7.97356E-009	2.29924	7
	54	320	998.26	1218.39	-19144	1	19182.7	-86.3584	2.27704E-009	2.39917	7
	55	326	998.26	1229.6	-19144.3	1	19183.7	-86.3251	7.29118E-009	2.49914	7
	56	331	998.26	1150.96	-19056.6	1	19091.3	-86.5437	8.27031E-009	2.59909	7
	57	336	998.26	1186.15	-19080.8	1	19117.6	-86.4428	9.76148E-009	2.69908	7
	58	342	998.26	1278.12	-18978.3	1	19021.3	-86.1472	7.45465E-009	2.79901	7
	59	348	998.26	1184.87	-18986.7	1	19023.6	-86.4291	3.26607E-009	2.89897	7
	60	353	998.26	1191.55	-18907.3	1	18944.9	-86.394	1.03063E-008	2.99891	7