File: OriginPro/EIS/C0_MS_pH10_03.DTA
EXPLAIN
TAG	MOTTSCHOTTKY
TITLE	LABEL	Mott-Schottky	Test &Identifier
DATE	LABEL	29-10-2009	Date
TIME	LABEL	23:31:31	Time
NOTES	NOTES	2	&Notes...
	Si/SiO2
	T=25.3oC
PSTAT	PSTAT	REF600-07089	Potentiostat
VINIT	POTEN	3.00000E+000	F	Initial &Voltage (V)
VFINAL	POTEN	-3.00000E+000	F	Final &Voltage (V)
VSTEP	QUANT	1.00000E-001	&Voltage Step (V)
FREQINIT	QUANT	1.00000E+003	Fre&quency (Hz)
VAC	QUANT	1.00000E+001	AC &Voltage (mV rms)
AREA	QUANT	1.00000E-002	&Area (cm^2)
CONDIT	TWOPARAM	T	2.00000E+001	3.00000E+000	Conditionin&g	Time(s)	E(V)
DELAY	TWOPARAM	T	2.50000E-001	0.00000E+000	Init. De&lay	Time(s)	Stab.(mV/s)
SPEED	SELECTOR	1	&Optimize for:
ZGUESS	QUANT	1.00000E+002	E&stimated Z (ohms)
OCVCURVE	TABLE	1
	Pt	T	Vf	Vm	Ach	Over
	#	s	V vs. Ref.	V	V	bits
	0	0.258333	3.64745E+000	0.00000E+000	-2.34270E-004	.............
EOC	QUANT	3.64745	Open Circuit (V)
PSTATMODEL	IQUANT	4	Pstat Model
PSTATSECTION	LABEL	REF600-07089	Pstat Section
PSTATSERIALNO	LABEL	07089	Pstat Serial Number
CTRLMODE	IQUANT	1	Control Mode
IESTAB	IQUANT	0	I/E Stability
CASPEED	IQUANT	2	Control Amp Speed
CONVENTION	IQUANT	1	Current Convention
ICHRANGE	IQUANT	2	Ich Range
ICHRANGEMODE	TOGGLE	F	Ich Auto Range
ICHOFFSETENABLE	TOGGLE	T	Ich Offset Enable
ICHOFFSET	QUANT	0	Ich Offset (V)
ICHFILTER	IQUANT	3	Ich Filter
VCHRANGE	IQUANT	2	Vch Range
VCHRANGEMODE	TOGGLE	F	Vch Auto Range
VCHOFFSETENABLE	TOGGLE	T	Vch Offset Enable
VCHOFFSET	QUANT	0	Vch Offset (V)
VCHFILTER	IQUANT	3	Vch Filter
ACHRANGE	IQUANT	2	Ach Range
ACHOFFSETENABLE	TOGGLE	F	Ach Offset Enable
ACHOFFSET	QUANT	0	Ach Offset (V)
ACHFILTER	IQUANT	1	Ach Filter
IERANGELOWERLIMIT	IQUANT	1	I/E Range Lower Limit
IERANGEMODE	TOGGLE	F	I/E AutoRange
IERANGE	IQUANT	10	I/E Range
POSFEEDENABLE	TOGGLE	F	Positive Feedback IR Comp
POSFEEDRESISTANCE	QUANT	0	Positive Feedback Resistance (ohm)
ACHSELECT	IQUANT	0	Ach Select
CABLEID	IQUANT	14	Cable ID
DCCALDATE	LABEL	14-4-2009	DC Calibration Date
ACCALDATE	LABEL	14-4-2009	AC Calibration Date
THERMOSELECT	IQUANT	0	Thermo Select
FRAMEWORKVERSION	QUANT	5.5	Framework Version
INSTRUMENTVERSION	LABEL	2.00	Instrument Version
ZCURVE	TABLE
	Pt	Time	Freq	Zreal	Zimag	Zsig	Zmod	Zphz	Idc	Vdc	IERange
	#	s	Hz	ohm	ohm	V	ohm	°	A	V	#
	0	10	998.26	1305.43	-18230.6	1	18277.3	-85.9043	1.30748E-008	2.9989	7
	1	16	998.26	1367.81	-18278.9	1	18330	-85.7205	1.01736E-008	2.89897	7
	2	21	998.26	1272.67	-18251	1	18295.3	-86.0111	4.9452E-009	2.799	7
	3	27	998.26	1348.95	-18264.2	1	18313.9	-85.7759	5.79132E-009	2.69905	7
	4	32	998.26	1279.28	-18304.6	1	18349.3	-86.0022	4.17843E-009	2.59907	7
	5	37	998.26	1289.89	-18359.6	1	18404.9	-85.9812	1.14536E-008	2.49916	7
	6	43	998.26	1323.31	-18371.4	1	18419	-85.88	6.2373E-009	2.39919	7
	7	49	998.26	1376.44	-18361.1	1	18412.6	-85.7128	6.40217E-009	2.29924	7
	8	54	998.26	1323.66	-18413.3	1	18460.8	-85.8883	1.02875E-008	2.19926	7
	9	60	998.26	1355.76	-18452.9	1	18502.7	-85.7979	1.10184E-008	2.09929	7
	10	66	998.26	1299.18	-18525.6	1	18571.1	-85.9885	1.24064E-008	1.99933	7
	11	71	998.26	1297.48	-18560.1	1	18605.4	-86.0011	3.60752E-009	1.89937	7
	12	77	998.26	1282.6	-18575.1	1	18619.3	-86.05	1.15249E-008	1.79939	7
	13	83	998.26	1317.63	-18607.2	1	18653.8	-85.9495	8.45075E-010	1.69945	7
	14	88	998.26	1344.24	-18687.3	1	18735.6	-85.8856	1.29672E-008	1.5996	7
	15	94	998.26	1409.32	-18843.3	1	18895.9	-85.7227	5.43459E-009	1.49963	7
	16	99	998.26	1314.23	-18813	1	18858.9	-86.004	8.9243E-009	1.39967	7
	17	108	998.26	1389.1	-18953.5	1	19004.3	-85.8083	8.66862E-009	1.2997	7
	18	116	998.26	1309.13	-19064	1	19108.9	-86.0716	1.28907E-008	1.19977	7
	19	124	998.26	1382.94	-19208.8	1	19258.5	-85.8821	1.04251E-008	1.09971	7
	20	132	998.26	1353.4	-19310.1	1	19357.5	-85.9909	6.27481E-009	0.99973	7
	21	141	998.26	1274.15	-19473.2	1	19514.9	-86.2564	3.16674E-009	0.899774	7
	22	152	998.26	1356.42	-19712.8	1	19759.4	-86.0637	1.25498E-008	0.799847	7
	23	163	998.26	1340.23	-19878.7	1	19923.8	-86.1429	9.91046E-009	0.699893	7
	24	169	998.26	1380.08	-20104.3	1	20151.6	-86.073	8.92395E-009	0.599908	7
	25	174	998.26	1385.13	-20304.3	1	20351.5	-86.0974	4.7351E-009	0.499961	7
	26	180	998.26	1358.53	-20690.6	1	20735.2	-86.2434	2.9227E-009	0.400006	7
	27	185	998.26	1423.52	-20972	1	21020.3	-86.1169	7.07275E-009	0.300076	7
	28	191	998.26	1340.23	-21214.2	1	21256.5	-86.3851	1.06315E-008	0.20011	7
	29	197	998.26	1323.72	-21602.6	1	21643.1	-86.4935	1.1485E-010	0.10016	7
	30	202	998.26	1384.08	-21853.8	1	21897.6	-86.3761	9.57152E-009	0.000217	7
	31	208	998.26	1329.61	-22187.9	1	22227.7	-86.5707	1.09879E-008	-0.100006	7
	32	214	998.26	1390.13	-22476.7	1	22519.6	-86.4609	9.45727E-009	-0.199965	7
	33	219	998.26	1430.56	-22832.5	1	22877.3	-86.4148	1.1952E-008	-0.299931	7
	34	225	998.26	1419.18	-23180.5	1	23223.9	-86.4966	4.65471E-009	-0.399885	7
	35	231	998.26	1607.09	-23659.2	1	23713.7	-86.114	1.06582E-008	-0.499837	7
	36	236	998.26	1568.83	-24076.7	1	24127.7	-86.2719	6.43866E-008	-0.599772	8
	37	242	998.26	1545.63	-24527.9	1	24576.6	-86.3943	1.01604E-008	-0.699754	7
	38	248	998.26	1541.97	-25097.4	1	25144.7	-86.4842	8.35035E-009	-0.799699	7
	39	254	998.26	1462.96	-25488.1	1	25530.1	-86.715	6.94252E-009	-0.899679	7
	40	260	998.26	1425.22	-25747.9	1	25787.3	-86.8317	3.83969E-009	-0.99964	7
	41	266	998.26	1488.71	-26179.5	1	26221.8	-86.7454	6.7381E-010	-1.0997	7
	42	271	998.26	1516.07	-26450.7	1	26494.1	-86.7196	1.18302E-008	-1.19963	7
	43	276	998.26	1471.91	-26685.5	1	26726.1	-86.8429	1.2154E-008	-1.29956	7
	44	281	998.26	1383.79	-27018.5	1	27053.9	-87.0681	8.01976E-009	-1.39954	7
	45	287	998.26	1593.89	-27208.8	1	27255.5	-86.6475	1.17294E-009	-1.49952	7
	46	292	998.26	1524.87	-27506.4	1	27548.7	-86.8269	5.10132E-009	-1.59943	7
	47	298	998.26	1510.38	-27771.8	1	27812.8	-86.887	1.05707E-008	-1.69936	7
	48	303	998.26	1534.12	-27861.3	1	27903.5	-86.8483	1.10426E-008	-1.79931	7
	49	308	998.26	1555.45	-27914.6	1	27957.9	-86.8107	2.55001E-009	-1.8993	7
	50	314	998.26	1733.6	-28130.9	1	28184.3	-86.4735	8.44719E-011	-1.99925	7
	51	319	998.26	1552.11	-28070.1	1	28113	-86.8351	9.92294E-009	-2.0992	7
	52	324	998.26	1617.96	-28132.8	1	28179.2	-86.7085	3.84397E-009	-2.19918	7
	53	330	998.26	1537.29	-28008.6	1	28050.8	-86.8584	6.28738E-009	-2.29917	7
	54	335	998.26	1609.39	-27911	1	27957.3	-86.6999	5.94684E-010	-2.39912	7
	55	341	998.26	1415.23	-27955.6	1	27991.4	-87.1019	2.27088E-009	-2.49908	7
	56	346	998.26	1468.09	-28001.1	1	28039.5	-86.9987	5.98006E-010	-2.59903	7
	57	352	998.26	1550.11	-27799	1	27842.2	-86.8084	6.75994E-009	-2.699	7
	58	357	998.26	1686.73	-27769.3	1	27820.5	-86.5241	5.42505E-010	-2.79899	7
	59	363	998.26	1704.92	-27803.2	1	27855.5	-86.491	8.85888E-009	-2.89887	7
	60	368	998.26	1767.29	-27600.8	1	27657.3	-86.3363	7.39189E-009	-2.99886	7