File: OriginPro/EIS/C0_MS_pH10_04.DTA
EXPLAIN
TAG	MOTTSCHOTTKY
TITLE	LABEL	Mott-Schottky	Test &Identifier
DATE	LABEL	30-10-2009	Date
TIME	LABEL	0:08:34	Time
NOTES	NOTES	2	&Notes...
	Si/SiO2
	T=25.3oC
PSTAT	PSTAT	REF600-07089	Potentiostat
VINIT	POTEN	3.00000E+000	F	Initial &Voltage (V)
VFINAL	POTEN	-3.00000E+000	F	Final &Voltage (V)
VSTEP	QUANT	1.00000E-001	&Voltage Step (V)
FREQINIT	QUANT	5.00000E+002	Fre&quency (Hz)
VAC	QUANT	1.00000E+001	AC &Voltage (mV rms)
AREA	QUANT	1.00000E-002	&Area (cm^2)
CONDIT	TWOPARAM	T	2.00000E+001	3.00000E+000	Conditionin&g	Time(s)	E(V)
DELAY	TWOPARAM	T	2.50000E-001	0.00000E+000	Init. De&lay	Time(s)	Stab.(mV/s)
SPEED	SELECTOR	1	&Optimize for:
ZGUESS	QUANT	1.00000E+002	E&stimated Z (ohms)
OCVCURVE	TABLE	1
	Pt	T	Vf	Vm	Ach	Over
	#	s	V vs. Ref.	V	V	bits
	0	0.258333	3.65784E+000	0.00000E+000	-1.95703E-004	.............
EOC	QUANT	3.65784	Open Circuit (V)
PSTATMODEL	IQUANT	4	Pstat Model
PSTATSECTION	LABEL	REF600-07089	Pstat Section
PSTATSERIALNO	LABEL	07089	Pstat Serial Number
CTRLMODE	IQUANT	1	Control Mode
IESTAB	IQUANT	0	I/E Stability
CASPEED	IQUANT	2	Control Amp Speed
CONVENTION	IQUANT	1	Current Convention
ICHRANGE	IQUANT	2	Ich Range
ICHRANGEMODE	TOGGLE	F	Ich Auto Range
ICHOFFSETENABLE	TOGGLE	T	Ich Offset Enable
ICHOFFSET	QUANT	0	Ich Offset (V)
ICHFILTER	IQUANT	3	Ich Filter
VCHRANGE	IQUANT	2	Vch Range
VCHRANGEMODE	TOGGLE	F	Vch Auto Range
VCHOFFSETENABLE	TOGGLE	T	Vch Offset Enable
VCHOFFSET	QUANT	0	Vch Offset (V)
VCHFILTER	IQUANT	3	Vch Filter
ACHRANGE	IQUANT	2	Ach Range
ACHOFFSETENABLE	TOGGLE	F	Ach Offset Enable
ACHOFFSET	QUANT	0	Ach Offset (V)
ACHFILTER	IQUANT	1	Ach Filter
IERANGELOWERLIMIT	IQUANT	1	I/E Range Lower Limit
IERANGEMODE	TOGGLE	F	I/E AutoRange
IERANGE	IQUANT	10	I/E Range
POSFEEDENABLE	TOGGLE	F	Positive Feedback IR Comp
POSFEEDRESISTANCE	QUANT	0	Positive Feedback Resistance (ohm)
ACHSELECT	IQUANT	0	Ach Select
CABLEID	IQUANT	14	Cable ID
DCCALDATE	LABEL	14-4-2009	DC Calibration Date
ACCALDATE	LABEL	14-4-2009	AC Calibration Date
THERMOSELECT	IQUANT	0	Thermo Select
FRAMEWORKVERSION	QUANT	5.5	Framework Version
INSTRUMENTVERSION	LABEL	2.00	Instrument Version
ZCURVE	TABLE
	Pt	Time	Freq	Zreal	Zimag	Zsig	Zmod	Zphz	Idc	Vdc	IERange
	#	s	Hz	ohm	ohm	V	ohm	°	A	V	#
	0	10	495.793	1725.79	-35982.3	1	36023.6	-87.2541	1.26074E-008	2.99889	7
	1	16	495.793	1726.9	-36016.9	1	36058.3	-87.2549	1.03894E-008	2.89894	7
	2	21	495.793	1723.52	-36049.7	1	36090.9	-87.2628	9.31616E-009	2.79898	7
	3	26	495.793	1731.21	-36092.6	1	36134.1	-87.2539	8.03301E-009	2.69905	7
	4	32	495.793	1730.49	-36122.7	1	36164.2	-87.2573	6.79569E-009	2.59906	7
	5	38	495.793	1731.12	-36181.8	1	36223.1	-87.2608	7.08617E-009	2.49913	7
	6	44	495.793	1733	-36228.2	1	36269.7	-87.2613	6.62838E-009	2.39917	7
	7	50	495.793	1727.08	-36284.2	1	36325.3	-87.2749	7.00344E-009	2.29921	7
	8	55	495.793	1733.21	-36346.8	1	36388.1	-87.2699	7.11459E-009	2.19923	7
	9	61	495.793	1739.79	-36420	1	36461.5	-87.265	6.2345E-009	2.09927	7
	10	66	495.793	1737.1	-36497.3	1	36538.6	-87.275	6.48165E-009	1.99929	7
	11	72	495.793	1736.1	-36581.8	1	36622.9	-87.2829	6.2274E-009	1.89936	7
	12	78	495.793	1732.65	-36680.1	1	36721	-87.2955	6.0557E-009	1.79936	7
	13	84	495.793	1741.71	-36784.2	1	36825.4	-87.2891	6.19328E-009	1.69944	7
	14	90	495.793	1736.87	-36905.5	1	36946.3	-87.3055	6.39491E-009	1.59956	7
	15	96	495.793	1745.01	-37041.6	1	37082.7	-87.3028	5.96924E-009	1.49962	7
	16	102	495.793	1749.44	-37203.6	1	37244.7	-87.3077	5.84946E-009	1.39963	7
	17	108	495.793	1748.02	-37382	1	37422.9	-87.3227	5.55243E-009	1.29968	7
	18	114	495.793	1746.99	-37587.1	1	37627.7	-87.3389	5.96105E-009	1.19974	7
	19	120	495.793	1757.86	-37820.8	1	37861.6	-87.3389	5.40699E-009	1.0997	7
	20	126	495.793	1759.48	-38095.7	1	38136.3	-87.3556	6.38645E-009	0.99972	7
	21	131	495.793	1762.37	-38414.4	1	38454.8	-87.3732	6.9045E-009	0.899777	7
	22	137	495.793	1772.83	-38767.7	1	38808.2	-87.3817	6.39002E-009	0.799825	7
	23	143	495.793	1783.86	-39169.2	1	39209.8	-87.3924	5.77075E-009	0.699859	7
	24	149	495.793	1778.66	-39621.3	1	39661.2	-87.4296	6.10754E-009	0.599888	7
	25	155	495.793	1792.16	-40119	1	40159	-87.4422	6.04605E-009	0.499954	7
	26	161	495.793	1802.99	-40655.7	1	40695.6	-87.4607	6.51829E-009	0.399998	7
	27	167	495.793	1806.86	-41230.2	1	41269.7	-87.4907	5.68315E-009	0.300061	7
	28	173	495.793	1813.15	-41825.7	1	41865	-87.5178	5.64095E-009	0.200086	7
	29	179	495.793	1831.61	-42433.5	1	42473	-87.5284	5.07018E-009	0.100167	7
	30	185	495.793	1845.32	-43052	1	43091.6	-87.5457	5.52252E-009	0.000197	7
	31	191	495.793	1863.7	-43663.5	1	43703.3	-87.5559	5.67731E-009	-0.100038	7
	32	197	495.793	1894.8	-44285.8	1	44326.3	-87.55	6.15988E-009	-0.199981	7
	33	203	495.793	1950.41	-44928	1	44970.4	-87.5142	5.4397E-009	-0.299955	7
	34	209	495.793	2053.09	-45623.4	1	45669.6	-87.4234	5.38286E-009	-0.399888	7
	35	215	495.793	2180.93	-46416.8	1	46468	-87.3099	5.60891E-009	-0.499862	7
	36	221	495.793	2301.26	-47318.6	1	47374.6	-87.2157	6.0375E-009	-0.5998	7
	37	227	495.793	2339.15	-48306	1	48362.6	-87.2277	5.74368E-009	-0.69977	7
	38	233	495.793	2279.76	-49274.1	1	49326.8	-87.351	5.57354E-009	-0.799706	7
	39	239	495.793	2168.8	-50118.9	1	50165.8	-87.5222	6.18761E-009	-0.899674	7
	40	245	495.793	2080.87	-50846.3	1	50888.8	-87.6565	6.58209E-010	-0.99964	6
	41	250	495.793	2036.48	-51500.7	1	51540.9	-87.7355	5.97153E-010	-1.0997	6
	42	256	495.793	2020.68	-52115.7	1	52154.9	-87.7796	5.86818E-010	-1.19964	6
	43	262	495.793	2017.38	-52706.2	1	52744.8	-87.808	6.21789E-010	-1.29958	6
	44	267	495.793	2025.26	-53269	1	53307.4	-87.8227	5.95606E-010	-1.39956	6
	45	273	495.793	2053.36	-53807.3	1	53846.5	-87.8146	5.82918E-010	-1.49952	6
	46	278	495.793	2103.87	-54250.8	1	54291.6	-87.7792	6.20219E-010	-1.59943	6
	47	284	495.793	2142.67	-54613.6	1	54655.6	-87.7533	5.51976E-010	-1.69938	6
	48	289	495.793	2183.37	-54919.6	1	54962.9	-87.7234	5.63603E-010	-1.79933	6
	49	295	495.793	2203.19	-55132.4	1	55176.4	-87.7116	5.5822E-010	-1.8993	6
	50	301	495.793	2204.07	-55268.5	1	55312.5	-87.7163	5.43304E-010	-1.99925	6
	51	307	495.793	2181.72	-55374.7	1	55417.7	-87.7438	4.1864E-010	-2.09923	6
	52	312	495.793	2131.87	-55420.4	1	55461.4	-87.7971	4.56395E-010	-2.19919	6
	53	317	495.793	2097.28	-55434	1	55473.7	-87.8333	4.45113E-010	-2.29919	6
	54	323	495.793	2071.6	-55422.2	1	55460.9	-87.8594	4.48409E-010	-2.39911	6
	55	328	495.793	2088.08	-55381.9	1	55421.2	-87.8408	4.16154E-010	-2.49908	6
	56	333	495.793	2142.41	-55289.3	1	55330.8	-87.7809	3.29613E-010	-2.59903	6
	57	338	495.793	2216.38	-55110.7	1	55155.2	-87.697	3.63859E-010	-2.699	6
	58	344	495.793	2265.22	-54879.8	1	54926.5	-87.6364	4.03458E-010	-2.79898	6
	59	349	495.793	2277.85	-54657.5	1	54705	-87.6136	3.49749E-010	-2.89889	6
	60	354	495.793	2260.49	-54464.9	1	54511.8	-87.6234	2.6987E-010	-2.99887	6