File: OriginPro/EIS/C0_MS_pH10_044a.DTA
EXPLAIN
TAG	MOTTSCHOTTKY
TITLE	LABEL	Mott-Schottky	Test &Identifier
DATE	LABEL	30-10-2009	Date
TIME	LABEL	0:24:58	Time
NOTES	NOTES	2	&Notes...
	Si/SiO2
	T=25.3oC
PSTAT	PSTAT	REF600-07089	Potentiostat
VINIT	POTEN	-3.00000E+000	F	Initial &Voltage (V)
VFINAL	POTEN	3.00000E+000	F	Final &Voltage (V)
VSTEP	QUANT	1.00000E-001	&Voltage Step (V)
FREQINIT	QUANT	5.00000E+002	Fre&quency (Hz)
VAC	QUANT	1.00000E+001	AC &Voltage (mV rms)
AREA	QUANT	1.00000E-002	&Area (cm^2)
CONDIT	TWOPARAM	T	2.00000E+001	-3.00000E+000	Conditionin&g	Time(s)	E(V)
DELAY	TWOPARAM	T	2.50000E-001	0.00000E+000	Init. De&lay	Time(s)	Stab.(mV/s)
SPEED	SELECTOR	1	&Optimize for:
ZGUESS	QUANT	1.00000E+002	E&stimated Z (ohms)
OCVCURVE	TABLE	1
	Pt	T	Vf	Vm	Ach	Over
	#	s	V vs. Ref.	V	V	bits
	0	0.258333	-2.05228E+000	0.00000E+000	1.31331E-004	.............
EOC	QUANT	-2.05228	Open Circuit (V)
PSTATMODEL	IQUANT	4	Pstat Model
PSTATSECTION	LABEL	REF600-07089	Pstat Section
PSTATSERIALNO	LABEL	07089	Pstat Serial Number
CTRLMODE	IQUANT	1	Control Mode
IESTAB	IQUANT	0	I/E Stability
CASPEED	IQUANT	2	Control Amp Speed
CONVENTION	IQUANT	1	Current Convention
ICHRANGE	IQUANT	2	Ich Range
ICHRANGEMODE	TOGGLE	F	Ich Auto Range
ICHOFFSETENABLE	TOGGLE	T	Ich Offset Enable
ICHOFFSET	QUANT	0	Ich Offset (V)
ICHFILTER	IQUANT	3	Ich Filter
VCHRANGE	IQUANT	2	Vch Range
VCHRANGEMODE	TOGGLE	F	Vch Auto Range
VCHOFFSETENABLE	TOGGLE	T	Vch Offset Enable
VCHOFFSET	QUANT	0	Vch Offset (V)
VCHFILTER	IQUANT	3	Vch Filter
ACHRANGE	IQUANT	2	Ach Range
ACHOFFSETENABLE	TOGGLE	F	Ach Offset Enable
ACHOFFSET	QUANT	0	Ach Offset (V)
ACHFILTER	IQUANT	2	Ach Filter
IERANGELOWERLIMIT	IQUANT	1	I/E Range Lower Limit
IERANGEMODE	TOGGLE	F	I/E AutoRange
IERANGE	IQUANT	10	I/E Range
POSFEEDENABLE	TOGGLE	F	Positive Feedback IR Comp
POSFEEDRESISTANCE	QUANT	0	Positive Feedback Resistance (ohm)
ACHSELECT	IQUANT	0	Ach Select
CABLEID	IQUANT	14	Cable ID
DCCALDATE	LABEL	14-4-2009	DC Calibration Date
ACCALDATE	LABEL	14-4-2009	AC Calibration Date
THERMOSELECT	IQUANT	0	Thermo Select
FRAMEWORKVERSION	QUANT	5.5	Framework Version
INSTRUMENTVERSION	LABEL	2.00	Instrument Version
ZCURVE	TABLE
	Pt	Time	Freq	Zreal	Zimag	Zsig	Zmod	Zphz	Idc	Vdc	IERange
	#	s	Hz	ohm	ohm	V	ohm	°	A	V	#
	0	11	495.793	2374.71	-55656.7	1	55707.3	-87.5568	9.65062E-010	-2.99887	6
	1	16	495.793	2394.14	-54027.6	1	54080.6	-87.4627	7.56651E-010	-2.89887	6
	2	24	495.793	2432.08	-53322.2	1	53377.6	-87.3885	8.74743E-010	-2.79897	6
	3	30	495.793	2510.19	-53128.9	1	53188.2	-87.2949	7.77348E-010	-2.699	6
	4	36	495.793	2594.85	-53092.3	1	53155.7	-87.2019	6.56959E-010	-2.59903	6
	5	41	495.793	2699.52	-53144.5	1	53213	-87.0921	5.4679E-010	-2.49908	6
	6	47	495.793	2809.25	-53250.8	1	53324.8	-86.9802	5.42929E-010	-2.39911	6
	7	52	495.793	2912.36	-53475.1	1	53554.4	-86.8826	5.29903E-010	-2.29918	6
	8	58	495.793	2965.2	-53817.7	1	53899.4	-86.8464	5.26309E-010	-2.19919	6
	9	63	495.793	2918.86	-54230.4	1	54308.9	-86.9191	5.27434E-010	-2.09923	6
	10	69	495.793	2788.38	-54577.7	1	54648.9	-87.0753	4.99025E-010	-1.99925	6
	11	74	495.793	2611.69	-54734.8	1	54797.1	-87.2682	4.979E-010	-1.89931	6
	12	80	495.793	2436.93	-54665.9	1	54720.2	-87.4475	4.77771E-010	-1.79932	6
	13	86	495.793	2301.23	-54447.8	1	54496.5	-87.5798	4.74427E-010	-1.69938	6
	14	91	495.793	2187.91	-54129.8	1	54174	-87.6854	4.9093E-010	-1.59944	6
	15	97	495.793	2115.44	-53668.5	1	53710.2	-87.7428	4.04716E-010	-1.49951	6
	16	103	495.793	2079.57	-53135.9	1	53176.6	-87.7588	4.78451E-010	-1.39954	6
	17	109	495.793	2072.05	-52562.6	1	52603.4	-87.7425	4.3061E-010	-1.29958	6
	18	114	495.793	2072.62	-51974.1	1	52015.4	-87.7164	4.28391E-010	-1.19964	6
	19	120	495.793	2091.39	-51359.9	1	51402.5	-87.6682	3.94879E-010	-1.09969	6
	20	126	495.793	2136.52	-50708.2	1	50753.2	-87.5873	3.53382E-010	-0.99964	6
	21	131	495.793	2213.92	-49976.5	1	50025.5	-87.4635	4.3997E-010	-0.899675	6
	22	137	495.793	2329.64	-49133.1	1	49188.3	-87.2854	4.16797E-010	-0.799693	6
	23	142	495.793	2382.9	-48154.3	1	48213.2	-87.167	4.74156E-009	-0.699771	7
	24	148	495.793	2343.19	-47165.9	1	47224.1	-87.1559	5.1058E-009	-0.599792	7
	25	154	495.793	2229.29	-46254.6	1	46308.3	-87.2407	4.50922E-009	-0.49986	7
	26	160	495.793	2090.59	-45464.9	1	45512.9	-87.3672	4.51849E-009	-0.399887	7
	27	166	495.793	1999.9	-44778.3	1	44823	-87.4427	5.20988E-009	-0.299949	7
	28	171	495.793	1946.79	-44141.5	1	44184.4	-87.4747	4.79273E-009	-0.199975	7
	29	176	495.793	1909.52	-43521	1	43562.9	-87.4877	5.06448E-009	-0.100031	7
	30	182	495.793	1895.5	-42908.9	1	42950.8	-87.4706	4.54596E-009	0.000203	7
	31	187	495.793	1880.13	-42293.7	1	42335.4	-87.4546	4.40863E-009	0.100174	7
	32	192	495.793	1871.5	-41680.3	1	41722.3	-87.4291	4.44261E-009	0.200097	7
	33	198	495.793	1854.25	-41100.1	1	41141.9	-87.4168	4.8303E-009	0.300077	7
	34	203	495.793	1849.09	-40516.6	1	40558.8	-87.387	4.75985E-009	0.400009	7
	35	209	495.793	1838.75	-39977.8	1	40020.1	-87.3666	5.22409E-009	0.499972	7
	36	215	495.793	1830.24	-39491.9	1	39534.3	-87.3465	4.99524E-009	0.599903	7
	37	220	495.793	1823.78	-39038.2	1	39080.7	-87.3252	5.25616E-009	0.699879	7
	38	226	495.793	1821.44	-38631.5	1	38674.4	-87.3006	5.25179E-009	0.799841	7
	39	232	495.793	1816.83	-38281.3	1	38324.4	-87.2828	5.82803E-009	0.89979	7
	40	237	495.793	1816.21	-37971.3	1	38014.7	-87.2616	5.90593E-009	0.99974	7
	41	243	495.793	1816.57	-37699.6	1	37743.4	-87.2413	5.52503E-009	1.09971	7
	42	249	495.793	1802.99	-37476.8	1	37520.1	-87.2456	5.68373E-009	1.19975	7
	43	254	495.793	1798.59	-37264.4	1	37307.8	-87.2367	5.35548E-009	1.29969	7
	44	260	495.793	1801.31	-37086.9	1	37130.6	-87.2193	5.20657E-009	1.39965	7
	45	266	495.793	1801.62	-36934.1	1	36978	-87.2074	5.92539E-009	1.49962	7
	46	272	495.793	1792.81	-36799.7	1	36843.4	-87.2109	5.15902E-009	1.59957	7
	47	277	495.793	1795.25	-36673	1	36716.9	-87.1974	5.31793E-009	1.69945	7
	48	283	495.793	1795.23	-36565.9	1	36609.9	-87.1893	5.4894E-009	1.79936	7
	49	289	495.793	1790.47	-36472.7	1	36516.7	-87.1896	5.60376E-009	1.89936	7
	50	294	495.793	1785.63	-36386.6	1	36430.4	-87.1905	5.32464E-009	1.99931	7
	51	300	495.793	1789.34	-36308.9	1	36353	-87.1787	5.84905E-009	2.09927	7
	52	306	495.793	1786.02	-36238.4	1	36282.4	-87.1784	5.21001E-009	2.19924	7
	53	312	495.793	1784.44	-36179.4	1	36223.3	-87.1764	5.95238E-009	2.29921	7
	54	318	495.793	1789.68	-36121.1	1	36165.4	-87.1635	6.63036E-009	2.39917	7
	55	324	495.793	1785.97	-36061.1	1	36105.3	-87.1647	5.68343E-009	2.49913	7
	56	329	495.793	1785.62	-36021.4	1	36065.7	-87.1621	6.07805E-009	2.59907	7
	57	335	495.793	1788.56	-35974.3	1	36018.7	-87.1537	6.13287E-009	2.69905	7
	58	341	495.793	1785.05	-35934.4	1	35978.7	-87.1562	5.97924E-009	2.79899	7
	59	347	495.793	1782.23	-35898.7	1	35942.9	-87.1578	6.03488E-009	2.89895	7
	60	353	495.793	1785.3	-35863.6	1	35908.1	-87.1502	6.01969E-009	2.99888	7