File: OriginPro/EIS/C0_MS_pH4_01.DTA
EXPLAIN
TAG	MOTTSCHOTTKY
TITLE	LABEL	Mott-Schottky	Test &Identifier
DATE	LABEL	29-10-2009	Date
TIME	LABEL	21:50:05	Time
NOTES	NOTES	2	&Notes...
	Si/SiO2
	T=25.3oC
PSTAT	PSTAT	REF600-07089	Potentiostat
VINIT	POTEN	3.00000E+000	F	Initial &Voltage (V)
VFINAL	POTEN	-3.00000E+000	F	Final &Voltage (V)
VSTEP	QUANT	1.00000E-001	&Voltage Step (V)
FREQINIT	QUANT	1.00000E+003	Fre&quency (Hz)
VAC	QUANT	1.00000E+001	AC &Voltage (mV rms)
AREA	QUANT	1.00000E-002	&Area (cm^2)
CONDIT	TWOPARAM	T	2.00000E+001	3.00000E+000	Conditionin&g	Time(s)	E(V)
DELAY	TWOPARAM	T	2.50000E-001	0.00000E+000	Init. De&lay	Time(s)	Stab.(mV/s)
SPEED	SELECTOR	1	&Optimize for:
ZGUESS	QUANT	1.00000E+002	E&stimated Z (ohms)
OCVCURVE	TABLE	1
	Pt	T	Vf	Vm	Ach	Over
	#	s	V vs. Ref.	V	V	bits
	0	0.258333	3.67287E+000	0.00000E+000	-1.90170E-004	.............
EOC	QUANT	3.67287	Open Circuit (V)
PSTATMODEL	IQUANT	4	Pstat Model
PSTATSECTION	LABEL	REF600-07089	Pstat Section
PSTATSERIALNO	LABEL	07089	Pstat Serial Number
CTRLMODE	IQUANT	1	Control Mode
IESTAB	IQUANT	0	I/E Stability
CASPEED	IQUANT	2	Control Amp Speed
CONVENTION	IQUANT	1	Current Convention
ICHRANGE	IQUANT	2	Ich Range
ICHRANGEMODE	TOGGLE	F	Ich Auto Range
ICHOFFSETENABLE	TOGGLE	T	Ich Offset Enable
ICHOFFSET	QUANT	0	Ich Offset (V)
ICHFILTER	IQUANT	3	Ich Filter
VCHRANGE	IQUANT	2	Vch Range
VCHRANGEMODE	TOGGLE	F	Vch Auto Range
VCHOFFSETENABLE	TOGGLE	T	Vch Offset Enable
VCHOFFSET	QUANT	0	Vch Offset (V)
VCHFILTER	IQUANT	3	Vch Filter
ACHRANGE	IQUANT	2	Ach Range
ACHOFFSETENABLE	TOGGLE	F	Ach Offset Enable
ACHOFFSET	QUANT	0	Ach Offset (V)
ACHFILTER	IQUANT	1	Ach Filter
IERANGELOWERLIMIT	IQUANT	1	I/E Range Lower Limit
IERANGEMODE	TOGGLE	F	I/E AutoRange
IERANGE	IQUANT	10	I/E Range
POSFEEDENABLE	TOGGLE	F	Positive Feedback IR Comp
POSFEEDRESISTANCE	QUANT	0	Positive Feedback Resistance (ohm)
ACHSELECT	IQUANT	0	Ach Select
CABLEID	IQUANT	14	Cable ID
DCCALDATE	LABEL	14-4-2009	DC Calibration Date
ACCALDATE	LABEL	14-4-2009	AC Calibration Date
THERMOSELECT	IQUANT	0	Thermo Select
FRAMEWORKVERSION	QUANT	5.5	Framework Version
INSTRUMENTVERSION	LABEL	2.00	Instrument Version
ZCURVE	TABLE
	Pt	Time	Freq	Zreal	Zimag	Zsig	Zmod	Zphz	Idc	Vdc	IERange
	#	s	Hz	ohm	ohm	V	ohm	°	A	V	#
	0	10	998.26	1220.98	-18940.8	1	18980.1	-86.3116	1.09888E-008	2.9989	7
	1	15	998.26	1191.42	-18975.7	1	19013.1	-86.4073	1.65043E-008	2.89898	7
	2	21	998.26	1151.69	-18979.1	1	19014	-86.5275	1.10963E-008	2.79902	7
	3	27	998.26	1217.68	-19005.3	1	19044.3	-86.334	1.37136E-008	2.69908	7
	4	32	998.26	1157.74	-19048.1	1	19083.3	-86.5219	5.96409E-009	2.59907	7
	5	38	998.26	1230.13	-19107.6	1	19147.1	-86.3164	6.98801E-009	2.49915	7
	6	44	998.26	1191.05	-19105.3	1	19142.4	-86.4327	1.6021E-008	2.39921	7
	7	49	998.26	1236.09	-19106.4	1	19146.4	-86.2984	5.17136E-009	2.29923	7
	8	55	998.26	1123.95	-19202.3	1	19235.2	-86.6502	1.02814E-008	2.19926	7
	9	60	998.26	1238.28	-19305.1	1	19344.7	-86.3299	2.87312E-009	2.09928	7
	10	67	998.26	1139.92	-19360.9	1	19394.4	-86.6305	9.20377E-009	1.99932	7
	11	73	998.26	1207.45	-19444.3	1	19481.8	-86.4466	4.66462E-010	1.89937	7
	12	79	998.26	1181.54	-19492.3	1	19528.1	-86.5312	1.0104E-008	1.79938	7
	13	84	998.26	1264.28	-19530.2	1	19571.1	-86.2961	7.39397E-009	1.69946	7
	14	90	998.26	1258.9	-19662.9	1	19703.2	-86.3367	6.83816E-009	1.59958	7
	15	98	998.26	1238.16	-19810.1	1	19848.8	-86.4236	5.37112E-009	1.49962	7
	16	106	998.26	1212.58	-19919.4	1	19956.3	-86.5164	8.5147E-009	1.39966	7
	17	115	998.26	1267.98	-20085.3	1	20125.3	-86.3877	8.11325E-009	1.29971	7
	18	123	998.26	1280.86	-20201.9	1	20242.5	-86.3721	1.46978E-008	1.19976	7
	19	131	998.26	1135.39	-20400.9	1	20432.5	-86.8146	1.34958E-008	1.09974	7
	20	139	998.26	1282.05	-20630.2	1	20670	-86.444	1.04242E-008	0.99975	7
	21	151	998.26	1256.41	-20918.6	1	20956.3	-86.5628	1.23236E-008	0.899794	7
	22	156	998.26	1183.57	-21173	1	21206.1	-86.8005	6.02008E-009	0.799837	7
	23	162	998.26	1152.89	-21444.2	1	21475.2	-86.9226	-6.44541E-010	0.699876	7
	24	167	998.26	1177.14	-21759.6	1	21791.4	-86.9035	1.01865E-008	0.599921	7
	25	173	998.26	1218.82	-22037.9	1	22071.6	-86.8344	4.62996E-009	0.49996	7
	26	179	998.26	1222.32	-22377.2	1	22410.5	-86.8734	8.02626E-009	0.400011	7
	27	184	998.26	1291.7	-22769.4	1	22806	-86.7531	4.77911E-009	0.300072	7
	28	190	998.26	1314.81	-22963.5	1	23001.1	-86.723	1.25484E-008	0.200118	7
	29	196	998.26	1402.77	-23422.4	1	23464.4	-86.5726	5.13498E-009	0.100182	7
	30	201	998.26	1363.87	-23738.9	1	23778	-86.7118	1.07094E-008	0.000232	7
	31	207	998.26	1384.58	-24155.8	1	24195.5	-86.7195	2.03707E-009	-0.100031	7
	32	213	998.26	1515.11	-24592.3	1	24638.9	-86.4745	1.04924E-008	-0.199948	7
	33	219	998.26	1451.01	-25197.5	1	25239.2	-86.7042	9.36481E-009	-0.299926	7
	34	224	998.26	1397.77	-25637.3	1	25675.4	-86.8793	3.61274E-009	-0.399885	7
	35	230	998.26	1331.83	-26131.6	1	26165.5	-87.0824	4.2409E-009	-0.499868	7
	36	236	998.26	1357.45	-26524.9	1	26559.6	-87.0704	9.66136E-009	-0.599796	7
	37	242	998.26	1398.12	-26800.4	1	26836.8	-87.0137	4.15714E-009	-0.699791	7
	38	248	998.26	1393.08	-27084.3	1	27120.1	-87.0556	9.93839E-009	-0.799698	7
	39	253	998.26	1325.1	-27431.7	1	27463.7	-87.2345	9.44078E-009	-0.899675	7
	40	259	998.26	1395.34	-27714.4	1	27749.5	-87.1178	1.485E-009	-0.99966	7
	41	264	998.26	1262.16	-27868.9	1	27897.5	-87.4069	3.85442E-009	-1.0997	7
	42	269	998.26	1301.88	-28300.1	1	28330	-87.3661	3.36827E-009	-1.19965	7
	43	275	998.26	1208.86	-28659.6	1	28685.1	-87.5847	7.49102E-009	-1.29958	7
	44	281	998.26	1339.02	-28739.5	1	28770.7	-87.3324	9.39187E-009	-1.39955	7
	45	286	998.26	1407.29	-29057.4	1	29091.5	-87.2272	2.76346E-009	-1.49952	7
	46	292	998.26	1278	-29076.8	1	29104.8	-87.4833	1.30264E-008	-1.59942	7
	47	297	998.26	1430.84	-29137.4	1	29172.6	-87.1887	1.10411E-008	-1.69937	7
	48	302	998.26	1425.67	-29176.6	1	29211.4	-87.2026	8.65893E-009	-1.79932	7
	49	307	998.26	1368.06	-29034.9	1	29067.2	-87.3024	-1.22234E-009	-1.89933	7
	50	313	998.26	1372.33	-29214.4	1	29246.6	-87.3105	1.19464E-008	-1.99924	7
	51	318	998.26	1417.91	-28873.8	1	28908.6	-87.1886	-9.63397E-010	-2.09926	7
	52	323	998.26	1489.43	-29099.7	1	29137.8	-87.0699	6.85468E-009	-2.19919	7
	53	329	998.26	1384.35	-28940.1	1	28973.2	-87.2613	3.15523E-009	-2.2992	7
	54	335	998.26	1366.26	-28881.8	1	28914.1	-87.2916	1.16761E-008	-2.3991	7
	55	340	998.26	1250.47	-28947.5	1	28974.5	-87.5265	1.26161E-008	-2.49908	7
	56	345	998.26	1341.91	-28818.6	1	28849.8	-87.334	-1.76831E-009	-2.59906	7
	57	351	998.26	1255.83	-28735.4	1	28762.8	-87.4976	1.05951E-008	-2.69901	7
	58	357	998.26	1379.65	-28810	1	28843.1	-87.2583	7.92553E-010	-2.79901	7
	59	362	998.26	1276.71	-28624.4	1	28652.8	-87.4462	1.05704E-008	-2.89889	7
	60	367	998.26	1494.8	-28633	1	28672	-87.0116	1.02354E-008	-2.99888	7