File: OriginPro/EIS/C0_MS_pH10_04a.DTA
EXPLAIN
TAG	MOTTSCHOTTKY
TITLE	LABEL	Mott-Schottky	Test &Identifier
DATE	LABEL	30-10-2009	Date
TIME	LABEL	0:15:56	Time
NOTES	NOTES	2	&Notes...
	Si/SiO2
	T=25.3oC
PSTAT	PSTAT	REF600-07089	Potentiostat
VINIT	POTEN	3.00000E+000	F	Initial &Voltage (V)
VFINAL	POTEN	-3.00000E+000	F	Final &Voltage (V)
VSTEP	QUANT	1.00000E-001	&Voltage Step (V)
FREQINIT	QUANT	5.00000E+002	Fre&quency (Hz)
VAC	QUANT	1.00000E+001	AC &Voltage (mV rms)
AREA	QUANT	1.00000E-002	&Area (cm^2)
CONDIT	TWOPARAM	T	2.00000E+001	3.00000E+000	Conditionin&g	Time(s)	E(V)
DELAY	TWOPARAM	T	2.50000E-001	0.00000E+000	Init. De&lay	Time(s)	Stab.(mV/s)
SPEED	SELECTOR	1	&Optimize for:
ZGUESS	QUANT	1.00000E+002	E&stimated Z (ohms)
OCVCURVE	TABLE	1
	Pt	T	Vf	Vm	Ach	Over
	#	s	V vs. Ref.	V	V	bits
	0	0.258333	3.64530E+000	0.00000E+000	1.32931E-004	.............
EOC	QUANT	3.6453	Open Circuit (V)
PSTATMODEL	IQUANT	4	Pstat Model
PSTATSECTION	LABEL	REF600-07089	Pstat Section
PSTATSERIALNO	LABEL	07089	Pstat Serial Number
CTRLMODE	IQUANT	1	Control Mode
IESTAB	IQUANT	0	I/E Stability
CASPEED	IQUANT	2	Control Amp Speed
CONVENTION	IQUANT	1	Current Convention
ICHRANGE	IQUANT	2	Ich Range
ICHRANGEMODE	TOGGLE	F	Ich Auto Range
ICHOFFSETENABLE	TOGGLE	T	Ich Offset Enable
ICHOFFSET	QUANT	0	Ich Offset (V)
ICHFILTER	IQUANT	3	Ich Filter
VCHRANGE	IQUANT	2	Vch Range
VCHRANGEMODE	TOGGLE	F	Vch Auto Range
VCHOFFSETENABLE	TOGGLE	T	Vch Offset Enable
VCHOFFSET	QUANT	0	Vch Offset (V)
VCHFILTER	IQUANT	3	Vch Filter
ACHRANGE	IQUANT	2	Ach Range
ACHOFFSETENABLE	TOGGLE	F	Ach Offset Enable
ACHOFFSET	QUANT	0	Ach Offset (V)
ACHFILTER	IQUANT	2	Ach Filter
IERANGELOWERLIMIT	IQUANT	1	I/E Range Lower Limit
IERANGEMODE	TOGGLE	F	I/E AutoRange
IERANGE	IQUANT	10	I/E Range
POSFEEDENABLE	TOGGLE	F	Positive Feedback IR Comp
POSFEEDRESISTANCE	QUANT	0	Positive Feedback Resistance (ohm)
ACHSELECT	IQUANT	0	Ach Select
CABLEID	IQUANT	14	Cable ID
DCCALDATE	LABEL	14-4-2009	DC Calibration Date
ACCALDATE	LABEL	14-4-2009	AC Calibration Date
THERMOSELECT	IQUANT	0	Thermo Select
FRAMEWORKVERSION	QUANT	5.5	Framework Version
INSTRUMENTVERSION	LABEL	2.00	Instrument Version
ZCURVE	TABLE
	Pt	Time	Freq	Zreal	Zimag	Zsig	Zmod	Zphz	Idc	Vdc	IERange
	#	s	Hz	ohm	ohm	V	ohm	°	A	V	#
	0	10	495.793	1747.18	-35939.5	1	35982	-87.2168	1.17218E-008	2.99889	7
	1	16	495.793	1746.88	-35973.5	1	36015.9	-87.2199	9.66299E-009	2.89895	7
	2	22	495.793	1744.59	-36008.9	1	36051.1	-87.2262	7.48601E-009	2.799	7
	3	28	495.793	1747.67	-36042.8	1	36085.1	-87.224	6.79158E-009	2.69905	7
	4	33	495.793	1754	-36087.5	1	36130.1	-87.2174	6.15826E-009	2.59907	7
	5	39	495.793	1752.29	-36137.2	1	36179.6	-87.2239	6.26581E-009	2.49913	7
	6	44	495.793	1745.94	-36187.4	1	36229.5	-87.2378	5.68405E-009	2.39917	7
	7	50	495.793	1757.74	-36245.1	1	36287.7	-87.2236	6.0662E-009	2.29921	7
	8	56	495.793	1751.18	-36308.4	1	36350.6	-87.2387	5.5451E-009	2.19923	7
	9	62	495.793	1757.05	-36378.4	1	36420.9	-87.2348	6.35492E-009	2.09927	7
	10	68	495.793	1755.66	-36450.8	1	36493.1	-87.2425	6.30103E-009	1.9993	7
	11	74	495.793	1759.3	-36531.3	1	36573.7	-87.2428	5.27175E-009	1.89936	7
	12	80	495.793	1765.13	-36636.2	1	36678.6	-87.2416	5.67719E-009	1.79935	7
	13	86	495.793	1761.61	-36740.2	1	36782.4	-87.2549	5.99006E-009	1.69944	7
	14	92	495.793	1761.79	-36863.2	1	36905.3	-87.2638	5.88488E-009	1.59957	7
	15	98	495.793	1766.48	-36999.3	1	37041.5	-87.2666	5.64477E-009	1.49961	7
	16	104	495.793	1770.58	-37157.8	1	37199.9	-87.2719	6.25482E-009	1.39963	7
	17	110	495.793	1775.93	-37332.3	1	37374.5	-87.2764	6.30935E-009	1.29969	7
	18	116	495.793	1779.11	-37540.1	1	37582.2	-87.2867	6.61093E-009	1.19975	7
	19	122	495.793	1790.7	-37769.8	1	37812.2	-87.2856	6.01723E-009	1.09971	7
	20	128	495.793	1778.14	-38045.4	1	38086.9	-87.3241	5.31181E-009	0.99973	7
	21	134	495.793	1787	-38348.4	1	38390	-87.332	5.52716E-009	0.899775	7
	22	140	495.793	1795.54	-38709.4	1	38751	-87.3442	5.80623E-009	0.799828	7
	23	146	495.793	1793.02	-39110.3	1	39151.4	-87.3751	6.28013E-009	0.699879	7
	24	152	495.793	1806.73	-39560.3	1	39601.5	-87.3851	6.02388E-009	0.599899	7
	25	158	495.793	1810.59	-40058.7	1	40099.6	-87.4121	5.82503E-009	0.499967	7
	26	164	495.793	1823.5	-40594.8	1	40635.7	-87.428	6.50962E-009	0.40001	7
	27	170	495.793	1830.73	-41168.8	1	41209.5	-87.4538	6.27214E-009	0.300067	7
	28	175	495.793	1843.53	-41760.4	1	41801.1	-87.4723	6.38216E-009	0.200094	7
	29	181	495.793	1859.04	-42369.9	1	42410.7	-87.4877	5.85335E-009	0.100179	7
	30	187	495.793	1868.25	-42984.2	1	43024.7	-87.5113	5.52959E-009	0.000204	7
	31	193	495.793	1889.86	-43590	1	43630.9	-87.5175	5.62625E-009	-0.100038	7
	32	199	495.793	1920.81	-44222.7	1	44264.4	-87.5129	6.05909E-009	-0.199978	7
	33	205	495.793	1976.79	-44848.7	1	44892.2	-87.4762	6.15164E-009	-0.299948	7
	34	211	495.793	2064.3	-45541.9	1	45588.7	-87.4047	5.82894E-009	-0.39989	7
	35	217	495.793	2199.6	-46335	1	46387.2	-87.2821	5.08423E-009	-0.499859	7
	36	223	495.793	2320.59	-47250.1	1	47307	-87.1883	5.50388E-009	-0.599795	7
	37	229	495.793	2362.26	-48225.6	1	48283.4	-87.1957	5.82208E-009	-0.699772	7
	38	235	495.793	2294.91	-49191.5	1	49245	-87.3289	5.82502E-009	-0.799699	7
	39	241	495.793	2197.09	-50033.7	1	50081.9	-87.4856	5.76729E-009	-0.899673	7
	40	247	495.793	2106.69	-50772.9	1	50816.5	-87.624	5.9248E-010	-0.99963	6
	41	252	495.793	2063.93	-51420.5	1	51461.9	-87.7015	5.55648E-010	-1.09968	6
	42	258	495.793	2045.69	-52035.7	1	52075.9	-87.7487	5.77645E-010	-1.19963	6
	43	263	495.793	2046.77	-52629.7	1	52669.5	-87.7729	6.41409E-010	-1.29957	6
	44	268	495.793	2054.83	-53189.4	1	53229	-87.7876	5.63453E-010	-1.39955	6
	45	274	495.793	2084.88	-53720.2	1	53760.7	-87.7775	5.18823E-010	-1.4995	6
	46	279	495.793	2130.47	-54176.4	1	54218.2	-87.748	5.86466E-010	-1.59942	6
	47	285	495.793	2169.45	-54543.4	1	54586.6	-87.7223	5.18114E-010	-1.69938	6
	48	290	495.793	2211.33	-54846.2	1	54890.7	-87.6912	4.72373E-010	-1.79932	6
	49	296	495.793	2242.03	-55075.9	1	55121.5	-87.6689	4.71145E-010	-1.8993	6
	50	302	495.793	2237.92	-55221.4	1	55266.7	-87.6793	4.07942E-010	-1.99924	6
	51	307	495.793	2210.51	-55315.2	1	55359.3	-87.7116	3.80494E-010	-2.09924	6
	52	312	495.793	2167.8	-55348	1	55390.4	-87.7571	4.57987E-010	-2.1992	6
	53	317	495.793	2121.54	-55349.3	1	55390	-87.8049	3.78149E-010	-2.29919	6
	54	323	495.793	2111.68	-55344.3	1	55384.6	-87.8149	3.46887E-010	-2.39911	6
	55	328	495.793	2135.51	-55299.6	1	55340.8	-87.7885	4.11155E-010	-2.49908	6
	56	333	495.793	2207.55	-55181.7	1	55225.9	-87.7091	3.6446E-010	-2.59903	6
	57	338	495.793	2274.61	-54978.4	1	55025.4	-87.6309	3.84713E-010	-2.69901	6
	58	344	495.793	2306.82	-54747.4	1	54796	-87.5872	3.05867E-010	-2.79898	6
	59	349	495.793	2305.05	-54526.6	1	54575.3	-87.5793	3.13852E-010	-2.89888	6
	60	354	495.793	2291.39	-54345.5	1	54393.8	-87.5856	2.90014E-010	-2.99886	6