File: OriginPro/EIS/C0_MS_pH7_06.DTA
EXPLAIN
TAG	MOTTSCHOTTKY
TITLE	LABEL	Mott-Schottky	Test &Identifier
DATE	LABEL	29-10-2009	Date
TIME	LABEL	21:26:55	Time
NOTES	NOTES	2	&Notes...
	Si/SiO2
	T=25.3oC
PSTAT	PSTAT	REF600-07089	Potentiostat
VINIT	POTEN	3.00000E+000	F	Initial &Voltage (V)
VFINAL	POTEN	-3.00000E+000	F	Final &Voltage (V)
VSTEP	QUANT	1.00000E-001	&Voltage Step (V)
FREQINIT	QUANT	1.00000E+004	Fre&quency (Hz)
VAC	QUANT	1.00000E+001	AC &Voltage (mV rms)
AREA	QUANT	1.00000E-002	&Area (cm^2)
CONDIT	TWOPARAM	T	2.00000E+001	3.00000E+000	Conditionin&g	Time(s)	E(V)
DELAY	TWOPARAM	T	2.50000E-001	0.00000E+000	Init. De&lay	Time(s)	Stab.(mV/s)
SPEED	SELECTOR	1	&Optimize for:
ZGUESS	QUANT	1.00000E+002	E&stimated Z (ohms)
OCVCURVE	TABLE	1
	Pt	T	Vf	Vm	Ach	Over
	#	s	V vs. Ref.	V	V	bits
	0	0.258333	3.66405E+000	0.00000E+000	-3.17435E-004	.............
EOC	QUANT	3.66405	Open Circuit (V)
PSTATMODEL	IQUANT	4	Pstat Model
PSTATSECTION	LABEL	REF600-07089	Pstat Section
PSTATSERIALNO	LABEL	07089	Pstat Serial Number
CTRLMODE	IQUANT	1	Control Mode
IESTAB	IQUANT	0	I/E Stability
CASPEED	IQUANT	2	Control Amp Speed
CONVENTION	IQUANT	1	Current Convention
ICHRANGE	IQUANT	2	Ich Range
ICHRANGEMODE	TOGGLE	F	Ich Auto Range
ICHOFFSETENABLE	TOGGLE	T	Ich Offset Enable
ICHOFFSET	QUANT	0	Ich Offset (V)
ICHFILTER	IQUANT	3	Ich Filter
VCHRANGE	IQUANT	2	Vch Range
VCHRANGEMODE	TOGGLE	F	Vch Auto Range
VCHOFFSETENABLE	TOGGLE	T	Vch Offset Enable
VCHOFFSET	QUANT	0	Vch Offset (V)
VCHFILTER	IQUANT	3	Vch Filter
ACHRANGE	IQUANT	2	Ach Range
ACHOFFSETENABLE	TOGGLE	F	Ach Offset Enable
ACHOFFSET	QUANT	0	Ach Offset (V)
ACHFILTER	IQUANT	1	Ach Filter
IERANGELOWERLIMIT	IQUANT	1	I/E Range Lower Limit
IERANGEMODE	TOGGLE	F	I/E AutoRange
IERANGE	IQUANT	10	I/E Range
POSFEEDENABLE	TOGGLE	F	Positive Feedback IR Comp
POSFEEDRESISTANCE	QUANT	0	Positive Feedback Resistance (ohm)
ACHSELECT	IQUANT	0	Ach Select
CABLEID	IQUANT	14	Cable ID
DCCALDATE	LABEL	14-4-2009	DC Calibration Date
ACCALDATE	LABEL	14-4-2009	AC Calibration Date
THERMOSELECT	IQUANT	0	Thermo Select
FRAMEWORKVERSION	QUANT	5.5	Framework Version
INSTRUMENTVERSION	LABEL	2.00	Instrument Version
ZCURVE	TABLE
	Pt	Time	Freq	Zreal	Zimag	Zsig	Zmod	Zphz	Idc	Vdc	IERange
	#	s	Hz	ohm	ohm	V	ohm	°	A	V	#
	0	10	10078.1	724.605	-2154.62	1	2273.2	-71.4121	9.73979E-008	2.99891	8
	1	16	10078.1	725.372	-2158.36	1	2276.99	-71.4237	1.06154E-007	2.899	8
	2	21	10078.1	726.243	-2158.46	1	2277.37	-71.4038	7.3572E-008	2.79902	8
	3	26	10078.1	725.37	-2161.3	1	2279.77	-71.4473	5.46103E-008	2.69905	8
	4	32	10078.1	726.233	-2164.39	1	2282.98	-71.4515	8.32145E-008	2.59911	8
	5	38	10078.1	726.766	-2170.5	1	2288.94	-71.4875	5.58229E-008	2.49916	8
	6	45	10078.1	727.313	-2170.52	1	2289.14	-71.4747	6.42255E-008	2.39918	8
	7	50	10078.1	726.741	-2175.53	1	2293.71	-71.528	6.31005E-008	2.29923	8
	8	56	10078.1	725.527	-2181.87	1	2299.34	-71.6068	9.51994E-008	2.19928	8
	9	62	10078.1	725.931	-2185.22	1	2302.64	-71.6235	7.74284E-008	2.0993	8
	10	68	10078.1	725.813	-2189.74	1	2306.9	-71.6617	6.32911E-008	1.99931	8
	11	73	10078.1	726.93	-2198.11	1	2315.2	-71.7006	4.66514E-008	1.89936	8
	12	79	10078.1	727.643	-2203.05	1	2320.11	-71.7222	5.9984E-008	1.79935	8
	13	85	10078.1	725.502	-2212.21	1	2328.14	-71.8429	5.48619E-008	1.69945	8
	14	91	10078.1	726.715	-2218.68	1	2334.66	-71.8641	7.00538E-008	1.59959	8
	15	96	10078.1	729.839	-2228.08	1	2344.57	-71.8631	4.62873E-008	1.49961	8
	16	102	10078.1	726.677	-2241.46	1	2356.31	-72.0374	8.11926E-008	1.39967	8
	17	108	10078.1	728.367	-2252.76	1	2367.58	-72.0828	7.83315E-008	1.29972	8
	18	116	10078.1	727.804	-2267.95	1	2381.87	-72.2081	5.40652E-008	1.19974	8
	19	122	10078.1	727.888	-2285.77	1	2398.87	-72.3363	6.5036E-008	1.0997	8
	20	128	10078.1	727.409	-2304.58	1	2416.65	-72.4824	5.47129E-008	0.99974	8
	21	134	10078.1	729.057	-2328.19	1	2439.67	-72.6124	4.96038E-008	0.89976	8
	22	139	10078.1	730.062	-2352.7	1	2463.37	-72.7605	4.70877E-008	0.799819	8
	23	145	10078.1	730.866	-2380.44	1	2490.11	-72.9319	6.98613E-008	0.699905	8
	24	151	10078.1	728.61	-2410.99	1	2518.68	-73.185	7.32665E-008	0.59992	8
	25	157	10078.1	732.7	-2438.26	1	2545.97	-73.2744	5.71684E-008	0.499964	8
	26	163	10078.1	733.655	-2469.46	1	2576.14	-73.4538	6.26668E-008	0.400026	8
	27	169	10078.1	736.703	-2502.99	1	2609.16	-73.5993	4.06406E-008	0.300058	8
	28	175	10078.1	736.451	-2535.2	1	2640	-73.8019	6.02591E-008	0.200089	8
	29	181	10078.1	743.341	-2571.9	1	2677.16	-73.8794	6.87739E-008	0.100174	8
	30	186	10078.1	749.112	-2612.25	1	2717.54	-73.9987	8.38231E-008	0.000228	8
	31	192	10078.1	758.163	-2661.65	1	2767.53	-74.1006	5.52392E-008	-0.100042	8
	32	198	10078.1	757.776	-2710.57	1	2814.5	-74.3809	5.8446E-008	-0.199981	8
	33	204	10078.1	753.7	-2760.79	1	2861.82	-74.7302	4.70985E-008	-0.299964	8
	34	210	10078.1	742.852	-2807.03	1	2903.66	-75.177	7.95511E-008	-0.39986	8
	35	216	10078.1	740.408	-2843.66	1	2938.47	-75.4058	5.33889E-008	-0.499879	8
	36	222	10078.1	739.241	-2880.8	1	2974.13	-75.6079	4.87404E-008	-0.599811	8
	37	228	10078.1	735.009	-2914.22	1	3005.48	-75.8444	9.30584E-008	-0.699749	8
	38	234	10078.1	740.458	-2944.58	1	3036.26	-75.8848	5.63477E-008	-0.799719	8
	39	239	10078.1	740.757	-2974.29	1	3065.15	-76.0148	4.02898E-008	-0.899707	8
	40	245	10078.1	738.317	-3007.19	1	3096.5	-76.2057	6.4738E-008	-0.99965	8
	41	251	10078.1	735.374	-3038.47	1	3126.19	-76.3948	6.2292E-008	-1.0997	8
	42	257	10078.1	738.348	-3068.58	1	3156.16	-76.4709	8.19405E-008	-1.19963	8
	43	262	10078.1	737.915	-3096.24	1	3182.96	-76.595	7.92662E-008	-1.29957	8
	44	268	10078.1	739.211	-3120.29	1	3206.66	-76.6721	5.56201E-008	-1.39958	8
	45	274	10078.1	741.956	-3145.42	1	3231.74	-76.7274	6.6078E-008	-1.49951	8
	46	280	10078.1	741.648	-3166.09	1	3251.79	-76.8163	4.98186E-008	-1.59946	8
	47	286	10078.1	748.529	-3184.39	1	3271.19	-76.7721	6.17754E-008	-1.69938	8
	48	292	10078.1	749.652	-3197.17	1	3283.88	-76.804	6.69743E-008	-1.79931	8
	49	298	10078.1	761.206	-3205.63	1	3294.77	-76.642	6.26675E-008	-1.89931	8
	50	303	10078.1	769.589	-3202.34	1	3293.51	-76.4869	4.48284E-008	-1.99927	8
	51	309	10078.1	772.307	-3195.98	1	3287.97	-76.4149	7.89524E-008	-2.09922	8
	52	315	10078.1	771.568	-3185.76	1	3277.86	-76.3855	4.26418E-008	-2.19922	8
	53	321	10078.1	771.427	-3183.49	1	3275.63	-76.3786	7.06815E-008	-2.29918	8
	54	327	10078.1	769.667	-3177.34	1	3269.23	-76.3832	4.96257E-008	-2.39913	8
	55	332	10078.1	770.651	-3174.51	1	3266.71	-76.3547	5.71297E-008	-2.4991	8
	56	338	10078.1	768.458	-3167.73	1	3259.61	-76.3641	5.38706E-008	-2.59906	8
	57	344	10078.1	768.648	-3163.86	1	3255.89	-76.3447	5.42272E-008	-2.69903	8
	58	350	10078.1	775.455	-3159.89	1	3253.65	-76.2118	5.38923E-008	-2.799	8
	59	355	10078.1	772.518	-3158.72	1	3251.82	-76.2571	7.43589E-008	-2.89889	8
	60	361	10078.1	772.335	-3148.85	1	3242.18	-76.2188	7.87963E-008	-2.99886	8