File: OriginPro/EIS/C0_MS_pH7_04.DTA
EXPLAIN
TAG	MOTTSCHOTTKY
TITLE	LABEL	Mott-Schottky	Test &Identifier
DATE	LABEL	29-10-2009	Date
TIME	LABEL	20:59:12	Time
NOTES	NOTES	2	&Notes...
	Si/SiO2
	T=25.3oC
PSTAT	PSTAT	REF600-07089	Potentiostat
VINIT	POTEN	3.00000E+000	F	Initial &Voltage (V)
VFINAL	POTEN	-3.00000E+000	F	Final &Voltage (V)
VSTEP	QUANT	1.00000E-001	&Voltage Step (V)
FREQINIT	QUANT	5.00000E+002	Fre&quency (Hz)
VAC	QUANT	1.00000E+001	AC &Voltage (mV rms)
AREA	QUANT	1.00000E-002	&Area (cm^2)
CONDIT	TWOPARAM	T	2.00000E+001	3.00000E+000	Conditionin&g	Time(s)	E(V)
DELAY	TWOPARAM	T	2.50000E-001	0.00000E+000	Init. De&lay	Time(s)	Stab.(mV/s)
SPEED	SELECTOR	1	&Optimize for:
ZGUESS	QUANT	1.00000E+002	E&stimated Z (ohms)
OCVCURVE	TABLE	1
	Pt	T	Vf	Vm	Ach	Over
	#	s	V vs. Ref.	V	V	bits
	0	0.258333	3.68528E+000	0.00000E+000	2.47265E-005	.............
EOC	QUANT	3.68528	Open Circuit (V)
PSTATMODEL	IQUANT	4	Pstat Model
PSTATSECTION	LABEL	REF600-07089	Pstat Section
PSTATSERIALNO	LABEL	07089	Pstat Serial Number
CTRLMODE	IQUANT	1	Control Mode
IESTAB	IQUANT	0	I/E Stability
CASPEED	IQUANT	2	Control Amp Speed
CONVENTION	IQUANT	1	Current Convention
ICHRANGE	IQUANT	2	Ich Range
ICHRANGEMODE	TOGGLE	F	Ich Auto Range
ICHOFFSETENABLE	TOGGLE	T	Ich Offset Enable
ICHOFFSET	QUANT	0	Ich Offset (V)
ICHFILTER	IQUANT	3	Ich Filter
VCHRANGE	IQUANT	2	Vch Range
VCHRANGEMODE	TOGGLE	F	Vch Auto Range
VCHOFFSETENABLE	TOGGLE	T	Vch Offset Enable
VCHOFFSET	QUANT	0	Vch Offset (V)
VCHFILTER	IQUANT	3	Vch Filter
ACHRANGE	IQUANT	2	Ach Range
ACHOFFSETENABLE	TOGGLE	F	Ach Offset Enable
ACHOFFSET	QUANT	0	Ach Offset (V)
ACHFILTER	IQUANT	1	Ach Filter
IERANGELOWERLIMIT	IQUANT	1	I/E Range Lower Limit
IERANGEMODE	TOGGLE	F	I/E AutoRange
IERANGE	IQUANT	10	I/E Range
POSFEEDENABLE	TOGGLE	F	Positive Feedback IR Comp
POSFEEDRESISTANCE	QUANT	0	Positive Feedback Resistance (ohm)
ACHSELECT	IQUANT	0	Ach Select
CABLEID	IQUANT	14	Cable ID
DCCALDATE	LABEL	14-4-2009	DC Calibration Date
ACCALDATE	LABEL	14-4-2009	AC Calibration Date
THERMOSELECT	IQUANT	0	Thermo Select
FRAMEWORKVERSION	QUANT	5.5	Framework Version
INSTRUMENTVERSION	LABEL	2.00	Instrument Version
ZCURVE	TABLE
	Pt	Time	Freq	Zreal	Zimag	Zsig	Zmod	Zphz	Idc	Vdc	IERange
	#	s	Hz	ohm	ohm	V	ohm	°	A	V	#
	0	13	495.793	1805.29	-37157	1	37200.8	-87.2184	1.25234E-008	2.99893	7
	1	19	495.793	1810.05	-37199.5	1	37243.5	-87.2143	1.0731E-008	2.899	7
	2	25	495.793	1810.27	-37242.7	1	37286.7	-87.2172	8.72607E-009	2.79904	7
	3	31	495.793	1811.48	-37290.4	1	37334.3	-87.2189	7.4495E-009	2.69908	7
	4	37	495.793	1808.89	-37347.6	1	37391.4	-87.2271	6.83376E-009	2.59911	7
	5	43	495.793	1816.08	-37412.5	1	37456.6	-87.2209	6.61729E-009	2.49915	7
	6	49	495.793	1825.03	-37484.9	1	37529.3	-87.2126	7.00935E-009	2.3992	7
	7	55	495.793	1819.03	-37560	1	37604	-87.2273	6.41008E-009	2.29924	7
	8	61	495.793	1819.45	-37645.2	1	37689.1	-87.233	6.43344E-009	2.19925	7
	9	66	495.793	1822.87	-37736.2	1	37780.2	-87.2344	6.22797E-009	2.09931	7
	10	72	495.793	1825.65	-37837	1	37881	-87.2376	7.34717E-009	1.99933	7
	11	78	495.793	1823.28	-37961	1	38004.7	-87.2502	6.59205E-009	1.89939	7
	12	84	495.793	1827.87	-38096.6	1	38140.4	-87.2531	6.78616E-009	1.79938	7
	13	90	495.793	1831	-38243.6	1	38287.4	-87.2589	5.6775E-009	1.69947	7
	14	96	495.793	1840.48	-38420.6	1	38464.7	-87.2574	6.43009E-009	1.59959	7
	15	102	495.793	1841.5	-38622.9	1	38666.8	-87.2703	5.5893E-009	1.49964	7
	16	108	495.793	1839.06	-38851.5	1	38895	-87.2899	5.56015E-009	1.39967	7
	17	114	495.793	1842.21	-39124.5	1	39167.8	-87.3042	6.3243E-009	1.2997	7
	18	120	495.793	1849.56	-39420.2	1	39463.6	-87.3137	6.06642E-009	1.19976	7
	19	126	495.793	1863.64	-39765.7	1	39809.3	-87.3168	6.13885E-009	1.09972	7
	20	132	495.793	1873.54	-40157.3	1	40201	-87.3288	6.17051E-009	0.99975	7
	21	137	495.793	1881.03	-40602.9	1	40646.4	-87.3475	5.91781E-009	0.899795	7
	22	143	495.793	1876.8	-41099.9	1	41142.7	-87.3854	6.52344E-009	0.799846	7
	23	149	495.793	1898.99	-41642.3	1	41685.6	-87.389	6.47717E-009	0.699888	7
	24	155	495.793	1909.29	-42211	1	42254.2	-87.4102	6.3152E-009	0.599906	7
	25	161	495.793	1917.58	-42818.4	1	42861.3	-87.4358	6.27667E-009	0.499965	7
	26	167	495.793	1938.21	-43440.3	1	43483.6	-87.4453	6.51332E-009	0.400022	7
	27	173	495.793	1953.37	-44072	1	44115.3	-87.4622	6.10256E-009	0.300076	7
	28	179	495.793	1966.07	-44700.8	1	44744	-87.4816	6.24509E-009	0.200102	7
	29	185	495.793	1991.26	-45326.2	1	45369.9	-87.4845	6.22757E-009	0.10018	7
	30	192	495.793	2033.55	-45978.3	1	46023.2	-87.4675	6.37501E-009	0.000209	7
	31	198	495.793	2111.87	-46647.8	1	46695.6	-87.4078	6.33037E-009	-0.100029	7
	32	204	495.793	2258.61	-47414.2	1	47467.9	-87.2727	6.26988E-009	-0.199974	7
	33	210	495.793	2394.73	-48301.3	1	48360.6	-87.1617	6.24584E-009	-0.299944	7
	34	216	495.793	2469.46	-49291.4	1	49353.2	-87.1319	6.13835E-009	-0.399883	7
	35	221	495.793	2446.86	-50307.6	1	50367	-87.2154	5.75805E-009	-0.499857	7
	36	227	495.793	2339.9	-51242.3	1	51295.7	-87.3855	6.58835E-010	-0.599795	6
	37	233	495.793	2227.51	-52033.5	1	52081.1	-87.5487	6.69282E-010	-0.699781	6
	38	239	495.793	2164.68	-52731.7	1	52776.1	-87.6493	6.40222E-010	-0.799715	6
	39	244	495.793	2147.97	-53371.5	1	53414.7	-87.6953	6.54287E-010	-0.899689	6
	40	250	495.793	2134.73	-53974.6	1	54016.8	-87.7351	6.12265E-010	-0.99964	6
	41	256	495.793	2137.82	-54574.2	1	54616.1	-87.7567	5.14887E-010	-1.0997	6
	42	261	495.793	2144.04	-55137.4	1	55179.1	-87.7732	6.21157E-010	-1.19965	6
	43	267	495.793	2156.35	-55669.4	1	55711.1	-87.7818	5.50877E-010	-1.29959	6
	44	272	495.793	2209.84	-56145.6	1	56189	-87.746	5.38766E-010	-1.39956	6
	45	278	495.793	2264.96	-56508.2	1	56553.6	-87.7047	5.91302E-010	-1.49952	6
	46	283	495.793	2271.85	-56795.5	1	56840.9	-87.7094	4.90641E-010	-1.59944	6
	47	289	495.793	2252.46	-57039.2	1	57083.7	-87.7386	5.18792E-010	-1.69939	6
	48	295	495.793	2223.28	-57191.5	1	57234.7	-87.7738	5.18121E-010	-1.79933	6
	49	300	495.793	2182.57	-57313.9	1	57355.4	-87.8192	4.94633E-010	-1.89932	6
	50	305	495.793	2135.08	-57352.3	1	57392.1	-87.868	4.58958E-010	-1.99926	6
	51	310	495.793	2086.41	-57358.5	1	57396.4	-87.9168	3.69078E-010	-2.09925	6
	52	316	495.793	2038	-57342.5	1	57378.7	-87.9645	4.07294E-010	-2.19921	6
	53	322	495.793	2006.15	-57300.2	1	57335.3	-87.9948	3.57248E-010	-2.29919	6
	54	327	495.793	1982.39	-57283.1	1	57317.4	-88.018	3.9805E-010	-2.39913	6
	55	332	495.793	1961.46	-57251.3	1	57284.9	-88.0378	3.55014E-010	-2.49909	6
	56	338	495.793	1947.46	-57224.7	1	57257.8	-88.0509	3.6211E-010	-2.59905	6
	57	343	495.793	1932.6	-57183.2	1	57215.8	-88.0643	3.22143E-010	-2.69901	6
	58	348	495.793	1924.17	-57141.6	1	57173.9	-88.0714	3.22432E-010	-2.79899	6
	59	353	495.793	1911.63	-57098.1	1	57130.1	-88.0825	3.99887E-010	-2.89891	6
	60	359	495.793	1922.31	-57060.3	1	57092.7	-88.0705	3.49864E-010	-2.9989	6