File: OriginPro/EIS/C0_MS_pH7_03a.DTA
EXPLAIN
TAG	MOTTSCHOTTKY
TITLE	LABEL	Mott-Schottky	Test &Identifier
DATE	LABEL	29-10-2009	Date
TIME	LABEL	20:51:41	Time
NOTES	NOTES	2	&Notes...
	Si/SiO2
	T=25.3oC
PSTAT	PSTAT	REF600-07089	Potentiostat
VINIT	POTEN	-3.00000E+000	F	Initial &Voltage (V)
VFINAL	POTEN	3.00000E+000	F	Final &Voltage (V)
VSTEP	QUANT	1.00000E-001	&Voltage Step (V)
FREQINIT	QUANT	1.00000E+003	Fre&quency (Hz)
VAC	QUANT	1.00000E+001	AC &Voltage (mV rms)
AREA	QUANT	1.00000E-002	&Area (cm^2)
CONDIT	TWOPARAM	T	2.00000E+001	-3.00000E+000	Conditionin&g	Time(s)	E(V)
DELAY	TWOPARAM	T	2.50000E-001	0.00000E+000	Init. De&lay	Time(s)	Stab.(mV/s)
SPEED	SELECTOR	1	&Optimize for:
ZGUESS	QUANT	1.00000E+002	E&stimated Z (ohms)
OCVCURVE	TABLE	1
	Pt	T	Vf	Vm	Ach	Over
	#	s	V vs. Ref.	V	V	bits
	0	0.258333	-2.05269E+000	0.00000E+000	4.67886E-004	.............
EOC	QUANT	-2.05269	Open Circuit (V)
PSTATMODEL	IQUANT	4	Pstat Model
PSTATSECTION	LABEL	REF600-07089	Pstat Section
PSTATSERIALNO	LABEL	07089	Pstat Serial Number
CTRLMODE	IQUANT	1	Control Mode
IESTAB	IQUANT	0	I/E Stability
CASPEED	IQUANT	2	Control Amp Speed
CONVENTION	IQUANT	1	Current Convention
ICHRANGE	IQUANT	2	Ich Range
ICHRANGEMODE	TOGGLE	F	Ich Auto Range
ICHOFFSETENABLE	TOGGLE	T	Ich Offset Enable
ICHOFFSET	QUANT	0	Ich Offset (V)
ICHFILTER	IQUANT	3	Ich Filter
VCHRANGE	IQUANT	2	Vch Range
VCHRANGEMODE	TOGGLE	F	Vch Auto Range
VCHOFFSETENABLE	TOGGLE	T	Vch Offset Enable
VCHOFFSET	QUANT	0	Vch Offset (V)
VCHFILTER	IQUANT	3	Vch Filter
ACHRANGE	IQUANT	2	Ach Range
ACHOFFSETENABLE	TOGGLE	F	Ach Offset Enable
ACHOFFSET	QUANT	0	Ach Offset (V)
ACHFILTER	IQUANT	1	Ach Filter
IERANGELOWERLIMIT	IQUANT	1	I/E Range Lower Limit
IERANGEMODE	TOGGLE	F	I/E AutoRange
IERANGE	IQUANT	10	I/E Range
POSFEEDENABLE	TOGGLE	F	Positive Feedback IR Comp
POSFEEDRESISTANCE	QUANT	0	Positive Feedback Resistance (ohm)
ACHSELECT	IQUANT	0	Ach Select
CABLEID	IQUANT	14	Cable ID
DCCALDATE	LABEL	14-4-2009	DC Calibration Date
ACCALDATE	LABEL	14-4-2009	AC Calibration Date
THERMOSELECT	IQUANT	0	Thermo Select
FRAMEWORKVERSION	QUANT	5.5	Framework Version
INSTRUMENTVERSION	LABEL	2.00	Instrument Version
ZCURVE	TABLE
	Pt	Time	Freq	Zreal	Zimag	Zsig	Zmod	Zphz	Idc	Vdc	IERange
	#	s	Hz	ohm	ohm	V	ohm	°	A	V	#
	0	10	998.26	1442.43	-29063.3	1	29099	-87.1587	1.38344E-008	-2.99889	7
	1	16	998.26	1663.2	-28248.4	1	28297.3	-86.6304	1.00977E-008	-2.89891	7
	2	22	998.26	1503.71	-27987.8	1	28028.1	-86.9246	1.32657E-008	-2.79898	7
	3	28	998.26	1786.52	-28002.9	1	28059.8	-86.3496	7.8285E-009	-2.69902	7
	4	34	998.26	1798.39	-27991.4	1	28049.1	-86.3239	3.29382E-009	-2.59906	7
	5	40	998.26	1881	-27881.2	1	27944.6	-86.1404	9.12365E-009	-2.49908	7
	6	46	998.26	2024.24	-28080.4	1	28153.3	-85.8768	1.61186E-009	-2.39913	7
	7	52	998.26	1905.66	-27945	1	28009.9	-86.0989	1.23236E-008	-2.29918	7
	8	58	998.26	1900.81	-28060.6	1	28124.9	-86.1247	2.25262E-009	-2.19921	7
	9	64	998.26	2023.15	-28171.1	1	28243.6	-85.8923	4.68062E-009	-2.09925	7
	10	70	998.26	1924.58	-28269.1	1	28334.5	-86.1053	1.11837E-008	-1.99925	7
	11	76	998.26	2087.24	-28368.7	1	28445.4	-85.792	7.1812E-009	-1.8993	7
	12	81	998.26	1803.79	-28655.4	1	28712.1	-86.3981	-2.66478E-010	-1.79934	7
	13	87	998.26	1786.54	-28693.9	1	28749.5	-86.4372	3.64203E-009	-1.69938	7
	14	93	998.26	1775.51	-28649.8	1	28704.8	-86.4538	8.18601E-009	-1.59944	7
	15	99	998.26	1638.07	-28428.2	1	28475.3	-86.7022	2.45123E-009	-1.49953	7
	16	105	998.26	1704.75	-28121.5	1	28173.1	-86.5309	1.84486E-009	-1.39957	7
	17	111	998.26	1692.54	-28106.5	1	28157.5	-86.5539	4.39057E-009	-1.29959	7
	18	117	998.26	1618.27	-27651.2	1	27698.5	-86.6506	1.01933E-008	-1.19964	7
	19	123	998.26	1681.31	-27292.3	1	27344.1	-86.4748	3.94432E-009	-1.0997	7
	20	129	998.26	1600.28	-27177.6	1	27224.7	-86.6302	4.57501E-009	-0.99965	7
	21	135	998.26	1640.48	-26735.5	1	26785.8	-86.4888	6.28726E-009	-0.899686	7
	22	141	998.26	1620.51	-26476.4	1	26526	-86.4976	3.97621E-009	-0.799702	7
	23	147	998.26	1663.94	-26289.8	1	26342.4	-86.3784	2.10691E-009	-0.699785	7
	24	153	998.26	1709.06	-25845.3	1	25901.7	-86.2167	1.21563E-009	-0.599797	7
	25	159	998.26	1728.34	-25406.6	1	25465.3	-86.1083	8.63928E-009	-0.49984	7
	26	165	998.26	1689.94	-24941.1	1	24998.3	-86.1237	7.96512E-009	-0.399872	7
	27	170	998.26	1724.58	-24403.1	1	24464	-85.9576	2.36073E-009	-0.299946	7
	28	177	998.26	1717.36	-23940.8	1	24002.4	-85.897	1.19279E-008	-0.199942	7
	29	182	998.26	1563.87	-23591.3	1	23643	-86.2074	3.83388E-008	-0.100015	8
	30	188	998.26	1547.86	-23142.9	1	23194.6	-86.1736	3.48813E-008	0.00021	8
	31	195	998.26	1602.4	-22763.1	1	22819.4	-85.9733	7.19307E-009	0.100183	7
	32	201	998.26	1572.66	-22516.5	1	22571.4	-86.0047	1.06918E-008	0.200114	7
	33	206	998.26	1511.27	-22227.6	1	22278.9	-86.1104	1.3343E-008	0.300097	7
	34	212	998.26	1588.3	-21904.9	1	21962.4	-85.8528	8.36615E-009	0.400025	7
	35	218	998.26	1525.58	-21519.4	1	21573.4	-85.9449	7.7125E-009	0.49998	7
	36	223	998.26	1505.46	-21284.8	1	21338	-85.9542	3.4792E-009	0.599908	7
	37	229	998.26	1522.11	-21009.6	1	21064.6	-85.8562	2.90733E-009	0.699894	7
	38	235	998.26	1526.29	-20638.9	1	20695.3	-85.7706	4.84119E-009	0.799845	7
	39	241	998.26	1487.73	-20379.1	1	20433.3	-85.8247	7.54347E-009	0.8998	7
	40	246	998.26	1404.79	-20290.4	1	20339	-86.0395	7.57611E-009	0.99976	7
	41	253	998.26	1479.04	-19937.6	1	19992.4	-85.7574	1.18744E-008	1.09975	7
	42	259	998.26	1458.73	-19896	1	19949.4	-85.8067	1.28129E-008	1.19979	7
	43	265	998.26	1467.09	-19665.6	1	19720.2	-85.7335	7.49694E-009	1.29971	7
	44	271	998.26	1406.28	-19618.8	1	19669.2	-85.9001	1.36305E-008	1.39969	7
	45	276	998.26	1440.9	-19440.2	1	19493.5	-85.761	1.24825E-009	1.49964	7
	46	281	998.26	1458.56	-19248.4	1	19303.6	-85.6667	1.25098E-008	1.59961	7
	47	287	998.26	1507.02	-19192.2	1	19251.3	-85.5102	1.25901E-008	1.69949	7
	48	292	998.26	1455.57	-19188.8	1	19243.9	-85.6621	9.01468E-009	1.79939	7
	49	298	998.26	1453.32	-19065.3	1	19120.6	-85.6409	2.85759E-009	1.89938	7
	50	303	998.26	1450.88	-19054.6	1	19109.7	-85.6457	1.15396E-008	1.99935	7
	51	308	998.26	1486.54	-19037.5	1	19095.4	-85.5351	2.21878E-009	2.0993	7
	52	314	998.26	1513.22	-18933.1	1	18993.5	-85.4304	6.08789E-009	2.19926	7
	53	319	998.26	1426.8	-18871.1	1	18925	-85.6762	1.1879E-008	2.29926	7
	54	324	998.26	1445.77	-18848.2	1	18903.5	-85.6136	4.59781E-010	2.39919	7
	55	330	998.26	1461.54	-18863.7	1	18920.2	-85.5696	1.19929E-008	2.49918	7
	56	335	998.26	1457.66	-18843.9	1	18900.2	-85.5767	9.34016E-009	2.59909	7
	57	340	998.26	1504.52	-18751.9	1	18812.1	-85.4128	5.10312E-009	2.69907	7
	58	346	998.26	1466.04	-18710.7	1	18768.1	-85.5199	2.72719E-009	2.79903	7
	59	351	998.26	1498.63	-18707	1	18766.9	-85.4198	-2.04916E-009	2.89898	7
	60	357	998.26	1432.14	-18688.9	1	18743.7	-85.618	1.03888E-008	2.99895	7