File: OriginPro/EIS/C0_MS_pH10_06.DTA
EXPLAIN
TAG	MOTTSCHOTTKY
TITLE	LABEL	Mott-Schottky	Test &Identifier
DATE	LABEL	30-10-2009	Date
TIME	LABEL	0:39:11	Time
NOTES	NOTES	2	&Notes...
	Si/SiO2
	T=25.3oC
PSTAT	PSTAT	REF600-07089	Potentiostat
VINIT	POTEN	3.00000E+000	F	Initial &Voltage (V)
VFINAL	POTEN	-3.00000E+000	F	Final &Voltage (V)
VSTEP	QUANT	1.00000E-001	&Voltage Step (V)
FREQINIT	QUANT	1.00000E+004	Fre&quency (Hz)
VAC	QUANT	1.00000E+001	AC &Voltage (mV rms)
AREA	QUANT	1.00000E-002	&Area (cm^2)
CONDIT	TWOPARAM	T	2.00000E+001	3.00000E+000	Conditionin&g	Time(s)	E(V)
DELAY	TWOPARAM	T	2.50000E-001	0.00000E+000	Init. De&lay	Time(s)	Stab.(mV/s)
SPEED	SELECTOR	1	&Optimize for:
ZGUESS	QUANT	1.00000E+002	E&stimated Z (ohms)
OCVCURVE	TABLE	1
	Pt	T	Vf	Vm	Ach	Over
	#	s	V vs. Ref.	V	V	bits
	0	0.258333	3.64339E+000	0.00000E+000	4.71320E-004	.............
EOC	QUANT	3.64339	Open Circuit (V)
PSTATMODEL	IQUANT	4	Pstat Model
PSTATSECTION	LABEL	REF600-07089	Pstat Section
PSTATSERIALNO	LABEL	07089	Pstat Serial Number
CTRLMODE	IQUANT	1	Control Mode
IESTAB	IQUANT	0	I/E Stability
CASPEED	IQUANT	2	Control Amp Speed
CONVENTION	IQUANT	1	Current Convention
ICHRANGE	IQUANT	2	Ich Range
ICHRANGEMODE	TOGGLE	F	Ich Auto Range
ICHOFFSETENABLE	TOGGLE	T	Ich Offset Enable
ICHOFFSET	QUANT	0	Ich Offset (V)
ICHFILTER	IQUANT	3	Ich Filter
VCHRANGE	IQUANT	2	Vch Range
VCHRANGEMODE	TOGGLE	F	Vch Auto Range
VCHOFFSETENABLE	TOGGLE	T	Vch Offset Enable
VCHOFFSET	QUANT	0	Vch Offset (V)
VCHFILTER	IQUANT	3	Vch Filter
ACHRANGE	IQUANT	2	Ach Range
ACHOFFSETENABLE	TOGGLE	F	Ach Offset Enable
ACHOFFSET	QUANT	0	Ach Offset (V)
ACHFILTER	IQUANT	1	Ach Filter
IERANGELOWERLIMIT	IQUANT	1	I/E Range Lower Limit
IERANGEMODE	TOGGLE	F	I/E AutoRange
IERANGE	IQUANT	10	I/E Range
POSFEEDENABLE	TOGGLE	F	Positive Feedback IR Comp
POSFEEDRESISTANCE	QUANT	0	Positive Feedback Resistance (ohm)
ACHSELECT	IQUANT	0	Ach Select
CABLEID	IQUANT	14	Cable ID
DCCALDATE	LABEL	14-4-2009	DC Calibration Date
ACCALDATE	LABEL	14-4-2009	AC Calibration Date
THERMOSELECT	IQUANT	0	Thermo Select
FRAMEWORKVERSION	QUANT	5.5	Framework Version
INSTRUMENTVERSION	LABEL	2.00	Instrument Version
ZCURVE	TABLE
	Pt	Time	Freq	Zreal	Zimag	Zsig	Zmod	Zphz	Idc	Vdc	IERange
	#	s	Hz	ohm	ohm	V	ohm	°	A	V	#
	0	10	10078.1	624.09	-2126.04	1	2215.75	-73.6406	1.06987E-007	2.99892	8
	1	15	10078.1	624.362	-2126.89	1	2216.64	-73.64	1.00483E-007	2.89898	8
	2	21	10078.1	623.012	-2127.81	1	2217.14	-73.6802	5.15766E-008	2.799	8
	3	26	10078.1	621.77	-2131.03	1	2219.88	-73.7343	5.16313E-008	2.69903	8
	4	32	10078.1	621.81	-2136.12	1	2224.78	-73.7701	7.01726E-008	2.59909	8
	5	37	10078.1	623.424	-2136.9	1	2225.98	-73.7358	6.64842E-008	2.49916	8
	6	43	10078.1	622.225	-2138.69	1	2227.37	-73.7783	6.73358E-008	2.3992	8
	7	49	10078.1	623.03	-2143.23	1	2231.95	-73.791	3.42322E-008	2.2992	8
	8	55	10078.1	621.24	-2143.55	1	2231.76	-73.8375	6.50169E-008	2.19925	8
	9	60	10078.1	620.768	-2148.8	1	2236.68	-73.8865	6.70717E-008	2.0993	8
	10	66	10078.1	623.124	-2154.09	1	2242.41	-73.8662	3.58987E-008	1.99928	8
	11	72	10078.1	621.582	-2156.51	1	2244.31	-73.9212	5.43681E-008	1.89937	8
	12	78	10078.1	622.882	-2158.43	1	2246.51	-73.9029	6.16387E-008	1.79937	8
	13	84	10078.1	623.212	-2165.23	1	2253.13	-73.9427	7.29657E-008	1.69948	8
	14	89	10078.1	623.133	-2172.53	1	2260.13	-73.9958	5.69963E-008	1.59956	8
	15	98	10078.1	623.887	-2183.21	1	2270.61	-74.0519	8.64576E-008	1.49964	8
	16	106	10078.1	622.442	-2189.11	1	2275.89	-74.1277	7.33102E-008	1.39965	8
	17	114	10078.1	621.861	-2197.02	1	2283.34	-74.196	4.95187E-008	1.29967	8
	18	123	10078.1	624.413	-2207.87	1	2294.47	-74.2085	9.42079E-008	1.19977	8
	19	131	10078.1	623.48	-2219.21	1	2305.13	-74.3075	8.82374E-008	1.09972	8
	20	142	10078.1	621.811	-2232.42	1	2317.4	-74.4355	7.16641E-008	0.99974	8
	21	153	10078.1	623.54	-2248.38	1	2333.24	-74.4998	7.43853E-008	0.899783	8
	22	159	10078.1	624.896	-2268.33	1	2352.83	-74.5978	4.90687E-008	0.79982	8
	23	165	10078.1	624.75	-2288.61	1	2372.35	-74.7313	7.29876E-008	0.699898	8
	24	171	10078.1	627.994	-2307.47	1	2391.4	-74.7753	3.52008E-008	0.599881	8
	25	177	10078.1	626.568	-2336.67	1	2419.22	-74.9895	7.60842E-008	0.499982	8
	26	183	10078.1	627.015	-2363.57	1	2445.33	-75.1426	6.96453E-008	0.40002	8
	27	188	10078.1	629.715	-2392.59	1	2474.08	-75.2545	6.10079E-008	0.300076	8
	28	194	10078.1	628.497	-2422.56	1	2502.76	-75.4561	5.52307E-008	0.200104	8
	29	200	10078.1	631.272	-2455.49	1	2535.34	-75.5823	7.69186E-008	0.100198	8
	30	206	10078.1	632.975	-2488.75	1	2567.98	-75.7302	8.4082E-008	0.000236	8
	31	212	10078.1	639.884	-2523.08	1	2602.96	-75.7691	7.20097E-008	-0.100011	8
	32	217	10078.1	645.009	-2557.3	1	2637.39	-75.8439	6.36578E-008	-0.199959	8
	33	223	10078.1	650.899	-2602.18	1	2682.35	-75.9564	7.08583E-008	-0.299922	8
	34	229	10078.1	656.712	-2646.76	1	2727.01	-76.0652	7.63687E-008	-0.399867	8
	35	235	10078.1	653.449	-2704.08	1	2781.92	-76.4148	6.92908E-008	-0.499856	8
	36	241	10078.1	654.111	-2743.45	1	2820.35	-76.5896	7.60367E-008	-0.599784	8
	37	247	10078.1	644.256	-2785.08	1	2858.63	-76.9752	6.79763E-008	-0.699766	8
	38	253	10078.1	639.409	-2823	1	2894.51	-77.2378	6.5626E-008	-0.799692	8
	39	259	10078.1	637.941	-2856.02	1	2926.4	-77.4087	7.94725E-008	-0.899666	8
	40	264	10078.1	642.374	-2886.49	1	2957.11	-77.4536	5.14641E-008	-0.99965	8
	41	269	10078.1	641.207	-2915.45	1	2985.13	-77.5962	8.37211E-008	-1.09967	8
	42	275	10078.1	637.812	-2952.11	1	3020.23	-77.8085	8.79132E-008	-1.19962	8
	43	281	10078.1	637.162	-2976.25	1	3043.69	-77.9164	5.24734E-008	-1.29958	8
	44	286	10078.1	638.273	-3009.16	1	3076.11	-78.0245	7.87223E-008	-1.39953	8
	45	292	10078.1	641.634	-3034.11	1	3101.22	-78.0594	4.95576E-008	-1.49951	8
	46	298	10078.1	643.371	-3062.56	1	3129.41	-78.136	7.85913E-008	-1.5994	8
	47	303	10078.1	644.548	-3088.84	1	3155.38	-78.2132	5.95133E-008	-1.69938	8
	48	309	10078.1	648.011	-3108.8	1	3175.61	-78.2256	7.51687E-008	-1.7993	8
	49	314	10078.1	652.885	-3130.07	1	3197.44	-78.2179	7.63844E-008	-1.89928	8
	50	319	10078.1	660.799	-3143.89	1	3212.58	-78.1301	7.12675E-008	-1.99922	8
	51	325	10078.1	667.845	-3152.71	1	3222.67	-78.0397	8.72587E-008	-2.09921	8
	52	330	10078.1	670.232	-3152.35	1	3222.81	-77.9969	8.83216E-008	-2.19916	8
	53	336	10078.1	679.249	-3145.93	1	3218.42	-77.8161	6.61725E-008	-2.29918	8
	54	342	10078.1	678.721	-3140.44	1	3212.95	-77.8047	5.42339E-008	-2.39913	8
	55	348	10078.1	681.98	-3137.89	1	3211.14	-77.7382	9.70089E-008	-2.49904	8
	56	353	10078.1	683.101	-3132.01	1	3205.64	-77.6963	7.70715E-008	-2.599	8
	57	358	10078.1	680.893	-3127.71	1	3200.97	-77.7185	9.5388E-008	-2.69897	8
	58	364	10078.1	680.444	-3123.53	1	3196.79	-77.7104	8.59928E-008	-2.79896	8
	59	369	10078.1	684.796	-3118.87	1	3193.16	-77.6163	8.59142E-008	-2.89886	8
	60	374	10078.1	684.493	-3114.58	1	3188.91	-77.6051	4.37743E-008	-2.99888	8