File: OriginPro/EIS/C0_MS_pH7_04a.DTA
EXPLAIN
TAG	MOTTSCHOTTKY
TITLE	LABEL	Mott-Schottky	Test &Identifier
DATE	LABEL	29-10-2009	Date
TIME	LABEL	21:06:20	Time
NOTES	NOTES	2	&Notes...
	Si/SiO2
	T=25.3oC
PSTAT	PSTAT	REF600-07089	Potentiostat
VINIT	POTEN	3.00000E+000	F	Initial &Voltage (V)
VFINAL	POTEN	-3.00000E+000	F	Final &Voltage (V)
VSTEP	QUANT	1.00000E-001	&Voltage Step (V)
FREQINIT	QUANT	5.00000E+002	Fre&quency (Hz)
VAC	QUANT	1.00000E+001	AC &Voltage (mV rms)
AREA	QUANT	1.00000E-002	&Area (cm^2)
CONDIT	TWOPARAM	T	2.00000E+001	3.00000E+000	Conditionin&g	Time(s)	E(V)
DELAY	TWOPARAM	T	2.50000E-001	0.00000E+000	Init. De&lay	Time(s)	Stab.(mV/s)
SPEED	SELECTOR	1	&Optimize for:
ZGUESS	QUANT	1.00000E+002	E&stimated Z (ohms)
OCVCURVE	TABLE	1
	Pt	T	Vf	Vm	Ach	Over
	#	s	V vs. Ref.	V	V	bits
	0	0.258333	3.67175E+000	0.00000E+000	1.51264E-004	.............
EOC	QUANT	3.67175	Open Circuit (V)
PSTATMODEL	IQUANT	4	Pstat Model
PSTATSECTION	LABEL	REF600-07089	Pstat Section
PSTATSERIALNO	LABEL	07089	Pstat Serial Number
CTRLMODE	IQUANT	1	Control Mode
IESTAB	IQUANT	0	I/E Stability
CASPEED	IQUANT	2	Control Amp Speed
CONVENTION	IQUANT	1	Current Convention
ICHRANGE	IQUANT	2	Ich Range
ICHRANGEMODE	TOGGLE	F	Ich Auto Range
ICHOFFSETENABLE	TOGGLE	T	Ich Offset Enable
ICHOFFSET	QUANT	0	Ich Offset (V)
ICHFILTER	IQUANT	3	Ich Filter
VCHRANGE	IQUANT	2	Vch Range
VCHRANGEMODE	TOGGLE	F	Vch Auto Range
VCHOFFSETENABLE	TOGGLE	T	Vch Offset Enable
VCHOFFSET	QUANT	0	Vch Offset (V)
VCHFILTER	IQUANT	3	Vch Filter
ACHRANGE	IQUANT	2	Ach Range
ACHOFFSETENABLE	TOGGLE	F	Ach Offset Enable
ACHOFFSET	QUANT	0	Ach Offset (V)
ACHFILTER	IQUANT	2	Ach Filter
IERANGELOWERLIMIT	IQUANT	1	I/E Range Lower Limit
IERANGEMODE	TOGGLE	F	I/E AutoRange
IERANGE	IQUANT	10	I/E Range
POSFEEDENABLE	TOGGLE	F	Positive Feedback IR Comp
POSFEEDRESISTANCE	QUANT	0	Positive Feedback Resistance (ohm)
ACHSELECT	IQUANT	0	Ach Select
CABLEID	IQUANT	14	Cable ID
DCCALDATE	LABEL	14-4-2009	DC Calibration Date
ACCALDATE	LABEL	14-4-2009	AC Calibration Date
THERMOSELECT	IQUANT	0	Thermo Select
FRAMEWORKVERSION	QUANT	5.5	Framework Version
INSTRUMENTVERSION	LABEL	2.00	Instrument Version
ZCURVE	TABLE
	Pt	Time	Freq	Zreal	Zimag	Zsig	Zmod	Zphz	Idc	Vdc	IERange
	#	s	Hz	ohm	ohm	V	ohm	°	A	V	#
	0	11	495.793	1827.68	-37123.2	1	37168.2	-87.1814	1.10634E-008	2.99893	7
	1	16	495.793	1829.97	-37169.1	1	37214.2	-87.1814	9.28256E-009	2.89899	7
	2	22	495.793	1827.09	-37223.7	1	37268.5	-87.19	8.90177E-009	2.79903	7
	3	28	495.793	1828.6	-37269.6	1	37314.5	-87.1911	7.21039E-009	2.69908	7
	4	33	495.793	1834.07	-37317	1	37362.1	-87.1863	6.33627E-009	2.59909	7
	5	39	495.793	1831.96	-37392.1	1	37437	-87.1951	6.1578E-009	2.49917	7
	6	44	495.793	1835.3	-37459.4	1	37504.3	-87.1951	5.44274E-009	2.3992	7
	7	50	495.793	1840.71	-37534.7	1	37579.8	-87.1924	6.15183E-009	2.29923	7
	8	56	495.793	1831.43	-37613.3	1	37657.8	-87.2124	5.53422E-009	2.19926	7
	9	62	495.793	1842.53	-37706	1	37751	-87.2024	5.5733E-009	2.09929	7
	10	68	495.793	1842.26	-37811.5	1	37856.3	-87.2106	5.32014E-009	1.99932	7
	11	74	495.793	1843.93	-37933.4	1	37978.2	-87.217	6.01176E-009	1.89938	7
	12	80	495.793	1852.41	-38071.7	1	38116.8	-87.2144	5.65449E-009	1.79938	7
	13	86	495.793	1848.38	-38225.6	1	38270.2	-87.2317	5.86067E-009	1.69947	7
	14	92	495.793	1859.41	-38390.4	1	38435.4	-87.2271	5.63128E-009	1.59959	7
	15	98	495.793	1852.67	-38600.7	1	38645.2	-87.2522	5.70227E-009	1.49964	7
	16	104	495.793	1865	-38820.5	1	38865.3	-87.2495	5.77084E-009	1.39966	7
	17	110	495.793	1865.94	-39081.1	1	39125.6	-87.2665	6.14105E-009	1.2997	7
	18	116	495.793	1872.82	-39383.8	1	39428.3	-87.2775	5.09778E-009	1.19977	7
	19	122	495.793	1873.44	-39731.8	1	39775.9	-87.3004	5.74361E-009	1.09972	7
	20	128	495.793	1886.04	-40130.5	1	40174.8	-87.3092	5.28933E-009	0.99974	7
	21	134	495.793	1892.8	-40565.1	1	40609.2	-87.3285	5.3039E-009	0.899795	7
	22	140	495.793	1912.96	-41061.8	1	41106.3	-87.3327	6.13367E-009	0.799846	7
	23	146	495.793	1910.83	-41591.4	1	41635.2	-87.3695	5.85318E-009	0.699891	7
	24	152	495.793	1925.16	-42155.5	1	42199.4	-87.3852	6.10782E-009	0.599912	7
	25	158	495.793	1948.66	-42767.5	1	42811.8	-87.3912	5.55988E-009	0.499973	7
	26	164	495.793	1953.51	-43380.7	1	43424.7	-87.4216	5.49378E-009	0.400017	7
	27	170	495.793	1967.14	-44008.1	1	44052	-87.4406	6.27653E-009	0.30008	7
	28	176	495.793	1980.74	-44641.5	1	44685.4	-87.4594	5.58479E-009	0.200103	7
	29	182	495.793	2015.47	-45274.6	1	45319.4	-87.4511	5.5905E-009	0.100181	7
	30	187	495.793	2051.36	-45928.4	1	45974.2	-87.4426	6.19679E-009	0.000202	7
	31	193	495.793	2142.07	-46600.3	1	46649.5	-87.3681	6.22682E-009	-0.100027	7
	32	199	495.793	2271.62	-47349.9	1	47404.3	-87.2533	5.98837E-009	-0.199969	7
	33	205	495.793	2406.77	-48238.7	1	48298.7	-87.1437	5.83807E-009	-0.299948	7
	34	211	495.793	2496.06	-49229.9	1	49293.2	-87.0975	6.47053E-009	-0.399887	7
	35	217	495.793	2476.72	-50248.8	1	50309.8	-87.1782	6.15644E-009	-0.499859	7
	36	223	495.793	2366.57	-51185.3	1	51240	-87.3528	6.79288E-010	-0.59979	6
	37	229	495.793	2262.38	-51976.4	1	52025.6	-87.5077	6.61445E-010	-0.69978	6
	38	234	495.793	2192.69	-52665	1	52710.7	-87.6159	6.19517E-010	-0.799709	6
	39	240	495.793	2170	-53309.1	1	53353.3	-87.669	5.71371E-010	-0.899687	6
	40	246	495.793	2164.78	-53918.9	1	53962.3	-87.7009	6.57012E-010	-0.99965	6
	41	251	495.793	2167.41	-54511.4	1	54554.5	-87.7231	5.74128E-010	-1.0997	6
	42	257	495.793	2176.31	-55079.6	1	55122.6	-87.7373	5.77153E-010	-1.19965	6
	43	262	495.793	2185.31	-55622.8	1	55665.7	-87.7501	5.63095E-010	-1.2996	6
	44	268	495.793	2234.68	-56091	1	56135.5	-87.7185	5.20707E-010	-1.39957	6
	45	273	495.793	2285.37	-56465.1	1	56511.3	-87.6823	4.8618E-010	-1.49952	6
	46	279	495.793	2305.34	-56763.7	1	56810.5	-87.6743	5.78793E-010	-1.59945	6
	47	285	495.793	2298.39	-56997.5	1	57043.8	-87.6908	4.51105E-010	-1.69939	6
	48	290	495.793	2260.13	-57148.2	1	57192.9	-87.7352	4.81039E-010	-1.79934	6
	49	296	495.793	2216.4	-57272.6	1	57315.5	-87.7838	4.75989E-010	-1.89932	6
	50	301	495.793	2171.44	-57305.8	1	57347	-87.83	4.34406E-010	-1.99928	6
	51	306	495.793	2114.78	-57313.7	1	57352.7	-87.8868	4.27609E-010	-2.09926	6
	52	311	495.793	2069.24	-57293.2	1	57330.6	-87.9316	4.2707E-010	-2.19921	6
	53	317	495.793	2026.45	-57276.1	1	57311.9	-87.9737	4.4347E-010	-2.29921	6
	54	322	495.793	2005.88	-57243.7	1	57278.8	-87.9931	3.2862E-010	-2.39913	6
	55	327	495.793	1986.09	-57206.4	1	57240.9	-88.0116	3.8359E-010	-2.4991	6
	56	333	495.793	1971.55	-57123.3	1	57157.3	-88.0233	3.40769E-010	-2.59906	6
	57	339	495.793	1963.96	-57103.9	1	57137.7	-88.0302	3.3213E-010	-2.69903	6
	58	344	495.793	1954.28	-57082	1	57115.5	-88.0392	2.96076E-010	-2.79901	6
	59	349	495.793	1953.09	-57040.7	1	57074.2	-88.0389	2.51462E-010	-2.89892	6
	60	354	495.793	1948.46	-56985.4	1	57018.7	-88.0417	3.04258E-010	-2.9989	6