File: OriginPro/EIS/C0_MS_pH10_03a.DTA
EXPLAIN
TAG	MOTTSCHOTTKY
TITLE	LABEL	Mott-Schottky	Test &Identifier
DATE	LABEL	29-10-2009	Date
TIME	LABEL	23:38:24	Time
NOTES	NOTES	2	&Notes...
	Si/SiO2
	T=25.3oC
PSTAT	PSTAT	REF600-07089	Potentiostat
VINIT	POTEN	-3.00000E+000	F	Initial &Voltage (V)
VFINAL	POTEN	3.00000E+000	F	Final &Voltage (V)
VSTEP	QUANT	1.00000E-001	&Voltage Step (V)
FREQINIT	QUANT	1.00000E+003	Fre&quency (Hz)
VAC	QUANT	1.00000E+001	AC &Voltage (mV rms)
AREA	QUANT	1.00000E-002	&Area (cm^2)
CONDIT	TWOPARAM	T	2.00000E+001	-3.00000E+000	Conditionin&g	Time(s)	E(V)
DELAY	TWOPARAM	T	2.50000E-001	0.00000E+000	Init. De&lay	Time(s)	Stab.(mV/s)
SPEED	SELECTOR	1	&Optimize for:
ZGUESS	QUANT	1.00000E+002	E&stimated Z (ohms)
OCVCURVE	TABLE	1
	Pt	T	Vf	Vm	Ach	Over
	#	s	V vs. Ref.	V	V	bits
	0	0.258333	-2.06628E+000	0.00000E+000	-3.21368E-004	.............
EOC	QUANT	-2.06628	Open Circuit (V)
PSTATMODEL	IQUANT	4	Pstat Model
PSTATSECTION	LABEL	REF600-07089	Pstat Section
PSTATSERIALNO	LABEL	07089	Pstat Serial Number
CTRLMODE	IQUANT	1	Control Mode
IESTAB	IQUANT	0	I/E Stability
CASPEED	IQUANT	2	Control Amp Speed
CONVENTION	IQUANT	1	Current Convention
ICHRANGE	IQUANT	2	Ich Range
ICHRANGEMODE	TOGGLE	F	Ich Auto Range
ICHOFFSETENABLE	TOGGLE	T	Ich Offset Enable
ICHOFFSET	QUANT	0	Ich Offset (V)
ICHFILTER	IQUANT	3	Ich Filter
VCHRANGE	IQUANT	2	Vch Range
VCHRANGEMODE	TOGGLE	F	Vch Auto Range
VCHOFFSETENABLE	TOGGLE	T	Vch Offset Enable
VCHOFFSET	QUANT	0	Vch Offset (V)
VCHFILTER	IQUANT	3	Vch Filter
ACHRANGE	IQUANT	2	Ach Range
ACHOFFSETENABLE	TOGGLE	F	Ach Offset Enable
ACHOFFSET	QUANT	0	Ach Offset (V)
ACHFILTER	IQUANT	1	Ach Filter
IERANGELOWERLIMIT	IQUANT	1	I/E Range Lower Limit
IERANGEMODE	TOGGLE	F	I/E AutoRange
IERANGE	IQUANT	10	I/E Range
POSFEEDENABLE	TOGGLE	F	Positive Feedback IR Comp
POSFEEDRESISTANCE	QUANT	0	Positive Feedback Resistance (ohm)
ACHSELECT	IQUANT	0	Ach Select
CABLEID	IQUANT	14	Cable ID
DCCALDATE	LABEL	14-4-2009	DC Calibration Date
ACCALDATE	LABEL	14-4-2009	AC Calibration Date
THERMOSELECT	IQUANT	0	Thermo Select
FRAMEWORKVERSION	QUANT	5.5	Framework Version
INSTRUMENTVERSION	LABEL	2.00	Instrument Version
ZCURVE	TABLE
	Pt	Time	Freq	Zreal	Zimag	Zsig	Zmod	Zphz	Idc	Vdc	IERange
	#	s	Hz	ohm	ohm	V	ohm	°	A	V	#
	0	11	998.26	1870.96	-27915.7	1	27978.3	-86.1657	1.6098E-008	-2.99887	7
	1	16	998.26	1798.48	-27180.8	1	27240.2	-86.2144	1.32396E-008	-2.89889	7
	2	22	998.26	1771.97	-26818.6	1	26877.1	-86.2198	1.3161E-008	-2.79897	7
	3	28	998.26	1782.19	-26964.7	1	27023.5	-86.2186	1.06587E-008	-2.699	7
	4	34	998.26	1916.2	-26901	1	26969.1	-85.9256	3.47347E-010	-2.59904	7
	5	40	998.26	1843.41	-26944.6	1	27007.6	-86.0862	2.09633E-009	-2.4991	7
	6	46	998.26	1969.49	-27015	1	27086.7	-85.8303	8.41689E-009	-2.3991	7
	7	52	998.26	1794.92	-27325.6	1	27384.5	-86.2418	2.59499E-009	-2.29919	7
	8	58	998.26	1986.97	-27442.3	1	27514.2	-85.8587	9.35475E-009	-2.19918	7
	9	64	998.26	1886.18	-27638.7	1	27703	-86.096	1.18452E-008	-2.09922	7
	10	70	998.26	1915.13	-27846.4	1	27912.2	-86.0657	2.76507E-009	-1.99925	7
	11	76	998.26	1760.54	-27861.3	1	27916.9	-86.3843	3.57338E-009	-1.8993	7
	12	82	998.26	1602.93	-27879.5	1	27925.5	-86.7094	8.76337E-009	-1.7993	7
	13	88	998.26	1651.15	-27631.8	1	27681.1	-86.5803	5.93002E-009	-1.69936	7
	14	94	998.26	1470.31	-27457.1	1	27496.5	-86.9348	1.0686E-008	-1.59941	7
	15	100	998.26	1565.48	-27259.1	1	27304	-86.7131	1.11721E-008	-1.49948	7
	16	106	998.26	1487.88	-26894	1	26935.2	-86.8334	1.99882E-009	-1.39956	7
	17	111	998.26	1581.16	-26640.2	1	26687.1	-86.6034	1.08708E-009	-1.29958	7
	18	117	998.26	1376.12	-26418.3	1	26454.2	-87.0182	9.34553E-009	-1.19963	7
	19	123	998.26	1445.94	-26123.2	1	26163.2	-86.8319	6.96814E-010	-1.09969	7
	20	129	998.26	1456.73	-25759.2	1	25800.4	-86.7633	-5.46046E-010	-0.99966	7
	21	135	998.26	1498.12	-25373.8	1	25418	-86.6211	1.25586E-008	-0.899662	7
	22	141	998.26	1576.71	-25135.4	1	25184.8	-86.4106	5.24524E-009	-0.799696	7
	23	147	998.26	1777.77	-24574.6	1	24638.8	-85.8623	4.58859E-008	-0.699744	8
	24	154	998.26	1685.58	-24085.2	1	24144.1	-85.9967	1.98973E-010	-0.5998	7
	25	159	998.26	1542.76	-23728	1	23778.1	-86.2799	7.65188E-009	-0.499871	8
	26	165	998.26	1772.47	-22999.8	1	23068	-85.5932	1.89029E-008	-0.399893	8
	27	171	998.26	1519.59	-22828.6	1	22879.2	-86.1917	1.33119E-008	-0.299914	7
	28	177	998.26	1409.75	-22448.2	1	22492.4	-86.4065	2.90343E-009	-0.199978	7
	29	183	998.26	1388.43	-22202.6	1	22246	-86.4217	1.08648E-008	-0.100021	7
	30	188	998.26	1459.2	-21852.8	1	21901.4	-86.1798	1.30603E-008	0.000232	7
	31	194	998.26	1428.22	-21596	1	21643.2	-86.2163	8.94053E-009	0.1002	7
	32	200	998.26	1378.48	-21126.5	1	21171.4	-86.2668	2.08509E-009	0.200096	7
	33	205	998.26	1382.04	-20896.8	1	20942.5	-86.2162	7.93241E-009	0.300081	7
	34	211	998.26	1321.16	-20531.4	1	20573.9	-86.3182	4.67416E-009	0.400014	7
	35	216	998.26	1403.44	-20324.9	1	20373.3	-86.05	1.18714E-009	0.499964	7
	36	222	998.26	1369.61	-20060.3	1	20107	-86.0942	1.11176E-008	0.599929	7
	37	227	998.26	1362.96	-19821.4	1	19868.2	-86.0664	1.92577E-009	0.699879	7
	38	232	998.26	1409.85	-19657.2	1	19707.7	-85.8977	7.82892E-009	0.799839	7
	39	238	998.26	1451.38	-19417.6	1	19471.8	-85.7253	4.09057E-009	0.899777	7
	40	243	998.26	1351.56	-19269.5	1	19316.8	-85.9879	1.21563E-008	0.99975	7
	41	248	998.26	1390.6	-19190.6	1	19240.9	-85.8554	1.07132E-009	1.0997	7
	42	254	998.26	1366.03	-19053.4	1	19102.3	-85.8992	7.44598E-009	1.19975	7
	43	259	998.26	1361.57	-18936	1	18984.9	-85.8873	1.00271E-008	1.29971	7
	44	264	998.26	1349.86	-18825.2	1	18873.5	-85.8986	7.86634E-009	1.39966	7
	45	270	998.26	1350.36	-18748.9	1	18797.4	-85.8805	2.93963E-009	1.49962	7
	46	275	998.26	1346.83	-18629.9	1	18678.5	-85.8651	6.05655E-009	1.59958	7
	47	280	998.26	1389.83	-18606.4	1	18658.2	-85.7282	1.77749E-009	1.69945	7
	48	286	998.26	1318.79	-18497	1	18544	-85.9219	2.51579E-009	1.79936	7
	49	291	998.26	1379.98	-18515.5	1	18566.9	-85.7376	1.67079E-009	1.89935	7
	50	296	998.26	1266.21	-18402.5	1	18446	-86.0639	7.03507E-009	1.99932	7
	51	302	998.26	1361.4	-18428.6	1	18478.8	-85.775	6.04071E-010	2.09926	7
	52	307	998.26	1349.68	-18395.8	1	18445.3	-85.8038	1.0978E-008	2.19925	7
	53	312	998.26	1368.61	-18336	1	18387	-85.7313	5.96921E-009	2.29924	7
	54	318	998.26	1345.96	-18322.4	1	18371.7	-85.7986	3.24696E-009	2.39918	7
	55	323	998.26	1342.61	-18286.7	1	18335.9	-85.8009	-8.10357E-010	2.49912	7
	56	328	998.26	1360.14	-18221.9	1	18272.6	-85.7312	1.58024E-009	2.59906	7
	57	334	998.26	1364.17	-18260.9	1	18311.8	-85.7277	2.76495E-009	2.69904	7
	58	339	998.26	1314.78	-18198.7	1	18246.2	-85.8678	1.52016E-008	2.79903	7
	59	344	998.26	1371.75	-18224.6	1	18276.1	-85.6955	1.32614E-008	2.89897	7
	60	350	998.26	1327.99	-18191.2	1	18239.6	-85.8247	4.33504E-009	2.9989	7