File: OriginPro/EIS/C0_MS_pH10_05.DTA
EXPLAIN
TAG	MOTTSCHOTTKY
TITLE	LABEL	Mott-Schottky	Test &Identifier
DATE	LABEL	30-10-2009	Date
TIME	LABEL	0:32:08	Time
NOTES	NOTES	2	&Notes...
	Si/SiO2
	T=25.3oC
PSTAT	PSTAT	REF600-07089	Potentiostat
VINIT	POTEN	3.00000E+000	F	Initial &Voltage (V)
VFINAL	POTEN	-3.00000E+000	F	Final &Voltage (V)
VSTEP	QUANT	1.00000E-001	&Voltage Step (V)
FREQINIT	QUANT	5.00000E+003	Fre&quency (Hz)
VAC	QUANT	1.00000E+001	AC &Voltage (mV rms)
AREA	QUANT	1.00000E-002	&Area (cm^2)
CONDIT	TWOPARAM	T	2.00000E+001	3.00000E+000	Conditionin&g	Time(s)	E(V)
DELAY	TWOPARAM	T	2.50000E-001	0.00000E+000	Init. De&lay	Time(s)	Stab.(mV/s)
SPEED	SELECTOR	1	&Optimize for:
ZGUESS	QUANT	1.00000E+002	E&stimated Z (ohms)
OCVCURVE	TABLE	1
	Pt	T	Vf	Vm	Ach	Over
	#	s	V vs. Ref.	V	V	bits
	0	0.258333	3.65878E+000	0.00000E+000	1.39630E-004	.............
EOC	QUANT	3.65878	Open Circuit (V)
PSTATMODEL	IQUANT	4	Pstat Model
PSTATSECTION	LABEL	REF600-07089	Pstat Section
PSTATSERIALNO	LABEL	07089	Pstat Serial Number
CTRLMODE	IQUANT	1	Control Mode
IESTAB	IQUANT	0	I/E Stability
CASPEED	IQUANT	2	Control Amp Speed
CONVENTION	IQUANT	1	Current Convention
ICHRANGE	IQUANT	2	Ich Range
ICHRANGEMODE	TOGGLE	F	Ich Auto Range
ICHOFFSETENABLE	TOGGLE	T	Ich Offset Enable
ICHOFFSET	QUANT	0	Ich Offset (V)
ICHFILTER	IQUANT	3	Ich Filter
VCHRANGE	IQUANT	2	Vch Range
VCHRANGEMODE	TOGGLE	F	Vch Auto Range
VCHOFFSETENABLE	TOGGLE	T	Vch Offset Enable
VCHOFFSET	QUANT	0	Vch Offset (V)
VCHFILTER	IQUANT	3	Vch Filter
ACHRANGE	IQUANT	2	Ach Range
ACHOFFSETENABLE	TOGGLE	F	Ach Offset Enable
ACHOFFSET	QUANT	0	Ach Offset (V)
ACHFILTER	IQUANT	2	Ach Filter
IERANGELOWERLIMIT	IQUANT	1	I/E Range Lower Limit
IERANGEMODE	TOGGLE	F	I/E AutoRange
IERANGE	IQUANT	10	I/E Range
POSFEEDENABLE	TOGGLE	F	Positive Feedback IR Comp
POSFEEDRESISTANCE	QUANT	0	Positive Feedback Resistance (ohm)
ACHSELECT	IQUANT	0	Ach Select
CABLEID	IQUANT	14	Cable ID
DCCALDATE	LABEL	14-4-2009	DC Calibration Date
ACCALDATE	LABEL	14-4-2009	AC Calibration Date
THERMOSELECT	IQUANT	0	Thermo Select
FRAMEWORKVERSION	QUANT	5.5	Framework Version
INSTRUMENTVERSION	LABEL	2.00	Instrument Version
ZCURVE	TABLE
	Pt	Time	Freq	Zreal	Zimag	Zsig	Zmod	Zphz	Idc	Vdc	IERange
	#	s	Hz	ohm	ohm	V	ohm	°	A	V	#
	0	13	5015.63	871.322	-3964.66	1	4059.28	-77.605	1.30773E-007	2.99892	8
	1	19	5015.63	871.257	-3973.65	1	4068.05	-77.6331	7.7914E-008	2.89893	8
	2	25	5015.63	877.658	-3969.98	1	4065.84	-77.5339	8.58707E-008	2.799	8
	3	31	5015.63	871.973	-3981.15	1	4075.52	-77.6459	6.09702E-008	2.69903	8
	4	37	5015.63	871.263	-3978.36	1	4072.65	-77.6472	7.21472E-008	2.59907	8
	5	42	5015.63	867.23	-3997.4	1	4090.39	-77.7594	6.76735E-008	2.49914	8
	6	48	5015.63	868.917	-3998.29	1	4091.62	-77.739	7.94629E-008	2.39919	8
	7	54	5015.63	878.103	-3997.55	1	4092.86	-77.6112	7.12331E-008	2.29923	8
	8	60	5015.63	872.958	-4017.77	1	4111.52	-77.7417	6.585E-008	2.19924	8
	9	66	5015.63	877.336	-4015.56	1	4110.28	-77.6754	3.56176E-008	2.09925	8
	10	72	5015.63	872.182	-4027.38	1	4120.74	-77.7805	6.91132E-008	1.99931	8
	11	78	5015.63	874.508	-4030.49	1	4124.27	-77.7581	5.93235E-008	1.89937	8
	12	84	5015.63	871.202	-4037.97	1	4130.89	-77.8249	7.61202E-008	1.79938	8
	13	90	5015.63	873.32	-4053.46	1	4146.48	-77.8415	3.46227E-008	1.69943	8
	14	96	5015.63	875.89	-4067.22	1	4160.46	-77.8467	5.7934E-008	1.59958	8
	15	102	5015.63	881.293	-4082.54	1	4176.58	-77.8185	3.79227E-008	1.49959	8
	16	107	5015.63	878.02	-4097.6	1	4190.61	-77.9057	3.83403E-008	1.39962	8
	17	113	5015.63	877.429	-4111.65	1	4204.23	-77.9537	4.99787E-008	1.29967	8
	18	119	5015.63	886.909	-4130.41	1	4224.56	-77.8811	3.63135E-008	1.19974	8
	19	125	5015.63	877.948	-4151.44	1	4243.26	-78.059	6.0135E-008	1.09972	8
	20	131	5015.63	879.083	-4182.53	1	4273.92	-78.1304	7.2431E-008	0.99975	8
	21	137	5015.63	885.567	-4211.68	1	4303.77	-78.1257	5.32478E-008	0.899776	8
	22	142	5015.63	877.824	-4258.79	1	4348.32	-78.3533	7.70597E-008	0.799854	8
	23	148	5015.63	888.731	-4294.41	1	4385.41	-78.3077	6.00839E-008	0.699889	8
	24	154	5015.63	883.038	-4338.04	1	4427	-78.4942	3.8854E-008	0.599881	8
	25	159	5015.63	878.739	-4382.58	1	4469.81	-78.6621	8.16456E-008	0.499983	8
	26	165	5015.63	879.317	-4443.27	1	4529.44	-78.8059	6.15051E-008	0.399998	8
	27	171	5015.63	880.09	-4503.84	1	4589.03	-78.9432	5.90075E-008	0.300061	8
	28	177	5015.63	889.151	-4565.27	1	4651.05	-78.9788	8.48997E-008	0.20011	8
	29	183	5015.63	883.798	-4623.21	1	4706.93	-79.1776	8.16051E-008	0.100191	8
	30	189	5015.63	890.852	-4690.04	1	4773.89	-79.245	4.82548E-008	0.000186	8
	31	195	5015.63	900.429	-4748.47	1	4833.09	-79.2628	7.66433E-008	-0.100023	8
	32	201	5015.63	894.809	-4824.53	1	4906.81	-79.4927	7.67224E-008	-0.199957	8
	33	207	5015.63	925.734	-4907	1	4993.56	-79.3164	8.48826E-008	-0.299921	8
	34	212	5015.63	929.491	-4991.4	1	5077.21	-79.4513	5.26282E-008	-0.399897	8
	35	218	5015.63	941.016	-5101.06	1	5187.13	-79.5479	1.61875E-008	-0.49984	7
	36	224	5015.63	937.251	-5193.54	1	5277.43	-79.7702	5.22203E-009	-0.599815	7
	37	229	5015.63	926.947	-5279.89	1	5360.64	-80.0425	9.7028E-009	-0.699779	7
	38	235	5015.63	918.997	-5358.46	1	5436.7	-80.2682	1.14949E-008	-0.799694	7
	39	240	5015.63	911.41	-5428.38	1	5504.36	-80.4691	1.32092E-008	-0.899662	7
	40	246	5015.63	913.567	-5497.48	1	5572.87	-80.5648	1.04469E-008	-0.99963	7
	41	252	5015.63	908.266	-5557.69	1	5631.42	-80.7185	1.04113E-008	-1.09968	7
	42	257	5015.63	908.863	-5616.87	1	5689.93	-80.8087	1.92948E-009	-1.19966	7
	43	263	5015.63	913.593	-5676.08	1	5749.13	-80.8564	1.14633E-008	-1.29957	7
	44	269	5015.63	908.043	-5731.73	1	5803.21	-80.9978	4.26871E-009	-1.39956	7
	45	274	5015.63	909.943	-5792.77	1	5863.8	-81.0728	1.38984E-008	-1.49949	7
	46	280	5015.63	914.966	-5839.25	1	5910.5	-81.0946	1.15162E-008	-1.59942	7
	47	286	5015.63	920.353	-5890.17	1	5961.64	-81.1192	7.04907E-009	-1.69937	7
	48	291	5015.63	931.248	-5939.53	1	6012.09	-81.0892	4.5136E-009	-1.79933	7
	49	297	5015.63	945.192	-5969.66	1	6044.03	-81.0029	6.77577E-009	-1.8993	7
	50	302	5015.63	952.21	-5992.33	1	6067.51	-80.9709	3.10347E-009	-1.99927	7
	51	308	5015.63	966.38	-5996.87	1	6074.23	-80.8457	1.3301E-009	-2.09926	7
	52	313	5015.63	967.43	-5997	1	6074.53	-80.836	7.22137E-009	-2.1992	7
	53	318	5015.63	973.19	-5983.55	1	6062.18	-80.7621	2.97204E-009	-2.2992	7
	54	324	5015.63	966.07	-5972.6	1	6050.22	-80.812	7.72073E-009	-2.39911	7
	55	330	5015.63	963.72	-5964.34	1	6041.69	-80.8215	5.11648E-009	-2.49908	7
	56	335	5015.63	968.2	-5955.11	1	6033.3	-80.7655	6.41126E-009	-2.59904	7
	57	340	5015.63	968.35	-5942.9	1	6021.28	-80.7454	1.18724E-008	-2.69899	7
	58	346	5015.63	968.37	-5934.58	1	6013.07	-80.7324	1.9823E-009	-2.79899	7
	59	351	5015.63	975.56	-5930.66	1	6010.36	-80.6588	9.5427E-009	-2.89887	7
	60	356	5015.63	981.79	-5916.73	1	5997.64	-80.5785	9.52388E-009	-2.99886	7